Test unit;G1;
Reference;Ponte et al. (2023);
top_displacement;horizontal_force;drift
[mm];[kN];[%]
-0.0300207500000000;-51.3739;-2.40166
-0.0300082500000000;-51.3738;-2.40066
-0.0299957500000000;-51.3738;-2.39966
-0.0299832500000000;-51.3738;-2.39866
-0.0299707500000000;-51.3738;-2.39766
-0.0299582500000000;-51.3738;-2.39666
-0.0299457500000000;-51.3738;-2.39566
-0.0299332500000000;-51.3738;-2.39466
-0.0299207500000000;-51.3738;-2.39366
-0.0299082500000000;-51.3738;-2.39266
-0.0298957500000000;-51.3738;-2.39166
-0.0298832500000000;-51.3738;-2.39066
-0.0298707500000000;-51.3738;-2.38966
-0.0298582500000000;-51.3738;-2.38866
-0.0298457500000000;-51.3738;-2.38766
-0.0298332500000000;-51.3738;-2.38666
-0.0298207500000000;-51.3738;-2.38566
-0.0298082500000000;-51.3738;-2.38466
-0.0297957500000000;-51.3738;-2.38366
-0.0297832500000000;-51.3738;-2.38266
-0.0297707500000000;-51.3738;-2.38166
-0.0297582500000000;-51.3738;-2.38066
-0.0297457500000000;-51.3738;-2.37966
-0.0297332500000000;-51.3738;-2.37866
-0.0297207500000000;-51.3738;-2.37766
-0.0297082500000000;-51.3738;-2.37666
-0.0296957500000000;-51.3738;-2.37566
-0.0296832500000000;-51.3738;-2.37466
-0.0296707500000000;-51.3738;-2.37366
-0.0296582500000000;-51.3738;-2.37266
-0.0296457500000000;-51.3738;-2.37166
-0.0296332500000000;-51.3738;-2.37066
-0.0296207500000000;-51.3738;-2.36966
-0.0296082500000000;-51.3738;-2.36866
-0.0295957500000000;-51.3872;-2.36766
-0.0295832500000000;-51.4027;-2.36666
-0.0295707500000000;-51.4181;-2.36566
-0.0295582500000000;-51.4335;-2.36466
-0.0295457500000000;-51.449;-2.36366
-0.0295332500000000;-51.4644;-2.36266
-0.0295207500000000;-51.4798;-2.36166
-0.0295082500000000;-51.4952;-2.36066
-0.0294957500000000;-51.5107;-2.35966
-0.0294832500000000;-51.5261;-2.35866
-0.0294707500000000;-51.5415;-2.35766
-0.0294582500000000;-51.557;-2.35666
-0.0294457500000000;-51.5724;-2.35566
-0.0294332500000000;-51.5878;-2.35466
-0.0294207500000000;-51.6033;-2.35366
-0.0294082500000000;-51.6187;-2.35266
-0.0293957500000000;-51.6341;-2.35166
-0.0293832500000000;-51.6496;-2.35066
-0.0293707500000000;-51.665;-2.34966
-0.0293582500000000;-51.6804;-2.34866
-0.0293457500000000;-51.6959;-2.34766
-0.0293332500000000;-51.7113;-2.34666
-0.0293207500000000;-51.7267;-2.34566
-0.0293082500000000;-51.7421;-2.34466
-0.0292957500000000;-51.7576;-2.34366
-0.0292832500000000;-51.773;-2.34266
-0.0292707500000000;-51.7884;-2.34166
-0.0292582500000000;-51.8039;-2.34066
-0.0292457500000000;-51.8193;-2.33966
-0.0292332500000000;-51.8347;-2.33866
-0.0292207500000000;-51.8502;-2.33766
-0.0292082500000000;-51.8656;-2.33666
-0.0291957500000000;-51.881;-2.33566
-0.0291832500000000;-51.9194;-2.33466
-0.0291707500000000;-51.9657;-2.33366
-0.0291582500000000;-52.012;-2.33266
-0.0291457500000000;-52.0583;-2.33166
-0.0291332500000000;-52.1046;-2.33066
-0.0291207500000000;-52.1509;-2.32966
-0.0291082500000000;-52.1972;-2.32866
-0.0290957500000000;-52.2435;-2.32766
-0.0290832500000000;-52.2898;-2.32666
-0.0290707500000000;-52.3361;-2.32566
-0.0290582500000000;-52.3824;-2.32466
-0.0290457500000000;-52.4286;-2.32366
-0.0290332500000000;-52.4749;-2.32266
-0.0290207500000000;-52.5212;-2.32166
-0.0290082500000000;-52.5675;-2.32066
-0.0289957500000000;-52.6138;-2.31966
-0.0289832500000000;-52.6601;-2.31866
-0.0289707500000000;-52.7064;-2.31766
-0.0289582500000000;-52.7527;-2.31666
-0.0289457500000000;-52.799;-2.31566
-0.0289332500000000;-52.8453;-2.31466
-0.0289207500000000;-52.8916;-2.31366
-0.0289082500000000;-52.9379;-2.31266
-0.0288957500000000;-52.9842;-2.31166
-0.0288832500000000;-53.0305;-2.31066
-0.0288707500000000;-53.0768;-2.30966
-0.0288582500000000;-53.1231;-2.30866
-0.0288457500000000;-53.1694;-2.30766
-0.0288332500000000;-53.2156;-2.30666
-0.0288207500000000;-53.2619;-2.30566
-0.0288082500000000;-53.3082;-2.30466
-0.0287957500000000;-53.3545;-2.30366
-0.0287832500000000;-53.4008;-2.30266
-0.0287707500000000;-53.4376;-2.30166
-0.0287582500000000;-53.4684;-2.30066
-0.0287457500000000;-53.4993;-2.29966
-0.0287332500000000;-53.5302;-2.29866
-0.0287207500000000;-53.561;-2.29766
-0.0287082500000000;-53.5919;-2.29666
-0.0286957500000000;-53.6228;-2.29566
-0.0286832500000000;-53.6536;-2.29466
-0.0286707500000000;-53.6845;-2.29366
-0.0286582500000000;-53.7153;-2.29266
-0.0286457500000000;-53.7462;-2.29166
-0.0286332500000000;-53.7771;-2.29066
-0.0286207500000000;-53.8079;-2.28966
-0.0286082500000000;-53.8388;-2.28866
-0.0285957500000000;-53.8697;-2.28766
-0.0285832500000000;-53.9005;-2.28666
-0.0285707500000000;-53.9314;-2.28566
-0.0285582500000000;-53.9623;-2.28466
-0.0285457500000000;-53.9931;-2.28366
-0.0285332500000000;-54.024;-2.28266
-0.0285207500000000;-54.0548;-2.28166
-0.0285082500000000;-54.0857;-2.28066
-0.0284957500000000;-54.1166;-2.27966
-0.0284832500000000;-54.1474;-2.27866
-0.0284707500000000;-54.1783;-2.27766
-0.0284582500000000;-54.2092;-2.27666
-0.0284457500000000;-54.24;-2.27566
-0.0284332500000000;-54.2709;-2.27466
-0.0284207500000000;-54.3017;-2.27366
-0.0284082500000000;-54.3326;-2.27266
-0.0283957500000000;-54.3635;-2.27166
-0.0283832500000000;-54.3943;-2.27066
-0.0283707500000000;-54.4252;-2.26966
-0.0283582500000000;-54.4485;-2.26866
-0.0283457500000000;-54.4639;-2.26766
-0.0283332500000000;-54.4793;-2.26666
-0.0283207500000000;-54.4948;-2.26566
-0.0283082500000000;-54.5102;-2.26466
-0.0282957500000000;-54.5256;-2.26366
-0.0282832500000000;-54.5411;-2.26266
-0.0282707500000000;-54.5565;-2.26166
-0.0282582500000000;-54.5719;-2.26066
-0.0282457500000000;-54.5874;-2.25966
-0.0282332500000000;-54.6028;-2.25866
-0.0282207500000000;-54.6182;-2.25766
-0.0282082500000000;-54.6336;-2.25666
-0.0281957500000000;-54.6491;-2.25566
-0.0281832500000000;-54.6645;-2.25466
-0.0281707500000000;-54.6799;-2.25366
-0.0281582500000000;-54.6954;-2.25266
-0.0281457500000000;-54.7108;-2.25166
-0.0281332500000000;-54.7262;-2.25066
-0.0281207500000000;-54.7417;-2.24966
-0.0281082500000000;-54.7571;-2.24866
-0.0280957500000000;-54.7725;-2.24766
-0.0280832500000000;-54.788;-2.24666
-0.0280707500000000;-54.8034;-2.24566
-0.0280582500000000;-54.8188;-2.24466
-0.0280457500000000;-54.8343;-2.24366
-0.0280332500000000;-54.8497;-2.24266
-0.0280207500000000;-54.8651;-2.24166
-0.0280082500000000;-54.8806;-2.24066
-0.0279957500000000;-54.896;-2.23966
-0.0279832500000000;-54.9114;-2.23866
-0.0279707500000000;-54.9268;-2.23766
-0.0279582500000000;-54.9423;-2.23666
-0.0279457500000000;-54.9521;-2.23566
-0.0279332500000000;-54.9521;-2.23466
-0.0279207500000000;-54.9521;-2.23366
-0.0279082500000000;-54.9521;-2.23266
-0.0278957500000000;-54.9521;-2.23166
-0.0278832500000000;-54.9521;-2.23066
-0.0278707500000000;-54.9521;-2.22966
-0.0278582500000000;-54.9521;-2.22866
-0.0278457500000000;-54.9521;-2.22766
-0.0278332500000000;-54.9521;-2.22666
-0.0278207500000000;-54.9521;-2.22566
-0.0278082500000000;-54.9521;-2.22466
-0.0277957500000000;-54.9521;-2.22366
-0.0277832500000000;-54.9521;-2.22266
-0.0277707500000000;-54.9521;-2.22166
-0.0277582500000000;-54.9521;-2.22066
-0.0277457500000000;-54.9521;-2.21966
-0.0277332500000000;-54.9521;-2.21866
-0.0277207500000000;-54.9521;-2.21766
-0.0277082500000000;-54.9521;-2.21666
-0.0276957500000000;-54.9521;-2.21566
-0.0276832500000000;-54.9521;-2.21466
-0.0276707500000000;-54.9521;-2.21366
-0.0276582500000000;-54.9521;-2.21266
-0.0276457500000000;-54.9521;-2.21166
-0.0276332500000000;-54.9521;-2.21066
-0.0276207500000000;-54.9521;-2.20966
-0.0276082500000000;-54.9521;-2.20866
-0.0275957500000000;-54.9521;-2.20766
-0.0275832500000000;-54.9521;-2.20666
-0.0275707500000000;-54.9521;-2.20566
-0.0275582500000000;-54.9521;-2.20466
-0.0275457500000000;-54.9521;-2.20366
-0.0275332500000000;-54.9558;-2.20266
-0.0275207500000000;-54.9712;-2.20166
-0.0275082500000000;-54.9866;-2.20066
-0.0274957500000000;-55.0021;-2.19966
-0.0274832500000000;-55.0175;-2.19866
-0.0274707500000000;-55.0329;-2.19766
-0.0274582500000000;-55.0483;-2.19666
-0.0274457500000000;-55.0638;-2.19566
-0.0274332500000000;-55.0792;-2.19466
-0.0274207500000000;-55.0946;-2.19366
-0.0274082500000000;-55.1101;-2.19266
-0.0273957500000000;-55.1255;-2.19166
-0.0273832500000000;-55.1409;-2.19066
-0.0273707500000000;-55.1564;-2.18966
-0.0273582500000000;-55.1718;-2.18866
-0.0273457500000000;-55.1872;-2.18766
-0.0273332500000000;-55.2027;-2.18666
-0.0273207500000000;-55.2181;-2.18566
-0.0273082500000000;-55.2335;-2.18466
-0.0272957500000000;-55.249;-2.18366
-0.0272832500000000;-55.2644;-2.18266
-0.0272707500000000;-55.2798;-2.18166
-0.0272582500000000;-55.2952;-2.18066
-0.0272457500000000;-55.3107;-2.17966
-0.0272332500000000;-55.3261;-2.17866
-0.0272207500000000;-55.3415;-2.17766
-0.0272082500000000;-55.357;-2.17666
-0.0271957500000000;-55.3724;-2.17566
-0.0271832500000000;-55.3878;-2.17466
-0.0271707500000000;-55.4033;-2.17366
-0.0271582500000000;-55.4187;-2.17266
-0.0271457500000000;-55.4341;-2.17166
-0.0271332500000000;-55.4496;-2.17066
-0.0271207500000000;-55.4633;-2.16966
-0.0271082500000000;-55.4633;-2.16866
-0.0270957500000000;-55.4633;-2.16766
-0.0270832500000000;-55.4633;-2.16666
-0.0270707500000000;-55.4633;-2.16566
-0.0270582500000000;-55.4633;-2.16466
-0.0270457500000000;-55.4633;-2.16366
-0.0270332500000000;-55.4633;-2.16266
-0.0270207500000000;-55.4633;-2.16166
-0.0270082500000000;-55.4633;-2.16066
-0.0269957500000000;-55.4633;-2.15966
-0.0269832500000000;-55.4633;-2.15866
-0.0269707500000000;-55.4633;-2.15766
-0.0269582500000000;-55.4633;-2.15666
-0.0269457500000000;-55.4633;-2.15566
-0.0269332500000000;-55.4633;-2.15466
-0.0269207500000000;-55.4633;-2.15366
-0.0269082500000000;-55.4633;-2.15266
-0.0268957500000000;-55.4633;-2.15166
-0.0268832500000000;-55.4633;-2.15066
-0.0268707500000000;-55.4633;-2.14966
-0.0268582500000000;-55.4633;-2.14866
-0.0268457500000000;-55.4633;-2.14766
-0.0268332500000000;-55.4633;-2.14666
-0.0268207500000000;-55.4633;-2.14566
-0.0268082500000000;-55.4633;-2.14466
-0.0267957500000000;-55.4633;-2.14366
-0.0267832500000000;-55.4633;-2.14266
-0.0267707500000000;-55.4633;-2.14166
-0.0267582500000000;-55.4633;-2.14066
-0.0267457500000000;-55.4633;-2.13966
-0.0267332500000000;-55.4633;-2.13866
-0.0267207500000000;-55.4633;-2.13766
-0.0267082500000000;-55.4633;-2.13666
-0.0266957500000000;-55.4785;-2.13566
-0.0266832500000000;-55.4939;-2.13466
-0.0266707500000000;-55.5093;-2.13366
-0.0266582500000000;-55.5248;-2.13266
-0.0266457500000000;-55.5402;-2.13166
-0.0266332500000000;-55.5556;-2.13066
-0.0266207500000000;-55.5711;-2.12966
-0.0266082500000000;-55.5865;-2.12866
-0.0265957500000000;-55.6019;-2.12766
-0.0265832500000000;-55.6174;-2.12666
-0.0265707500000000;-55.6328;-2.12566
-0.0265582500000000;-55.6482;-2.12466
-0.0265457500000000;-55.6636;-2.12366
-0.0265332500000000;-55.6791;-2.12266
-0.0265207500000000;-55.6945;-2.12166
-0.0265082500000000;-55.7099;-2.12066
-0.0264957500000000;-55.7254;-2.11966
-0.0264832500000000;-55.7408;-2.11866
-0.0264707500000000;-55.7562;-2.11766
-0.0264582500000000;-55.7717;-2.11666
-0.0264457500000000;-55.7871;-2.11566
-0.0264332500000000;-55.8025;-2.11466
-0.0264207500000000;-55.818;-2.11366
-0.0264082500000000;-55.8334;-2.11266
-0.0263957500000000;-55.8488;-2.11166
-0.0263832500000000;-55.8643;-2.11066
-0.0263707500000000;-55.8797;-2.10966
-0.0263582500000000;-55.8951;-2.10866
-0.0263457500000000;-55.9106;-2.10766
-0.0263332500000000;-55.926;-2.10666
-0.0263207500000000;-55.9414;-2.10566
-0.0263082500000000;-55.9568;-2.10466
-0.0262957500000000;-55.9723;-2.10366
-0.0262832500000000;-55.9744;-2.10266
-0.0262707500000000;-55.9744;-2.10166
-0.0262582500000000;-55.9744;-2.10066
-0.0262457500000000;-55.9744;-2.09966
-0.0262332500000000;-55.9744;-2.09866
-0.0262207500000000;-55.9744;-2.09766
-0.0262082500000000;-55.9744;-2.09666
-0.0261957500000000;-55.9744;-2.09566
-0.0261832500000000;-55.9744;-2.09466
-0.0261707500000000;-55.9744;-2.09366
-0.0261582500000000;-55.9744;-2.09266
-0.0261457500000000;-55.9744;-2.09166
-0.0261332500000000;-55.9744;-2.09066
-0.0261207500000000;-55.9744;-2.08966
-0.0261082500000000;-55.9744;-2.08866
-0.0260957500000000;-55.9744;-2.08766
-0.0260832500000000;-55.9744;-2.08666
-0.0260707500000000;-55.9744;-2.08566
-0.0260582500000000;-55.9744;-2.08466
-0.0260457500000000;-55.9744;-2.08366
-0.0260332500000000;-55.9744;-2.08266
-0.0260207500000000;-55.9744;-2.08166
-0.0260082500000000;-55.9744;-2.08066
-0.0259957500000000;-55.9744;-2.07966
-0.0259832500000000;-55.9744;-2.07866
-0.0259707500000000;-55.9744;-2.07766
-0.0259582500000000;-55.9744;-2.07666
-0.0259457500000000;-55.9744;-2.07566
-0.0259332500000000;-55.9744;-2.07466
-0.0259207500000000;-55.9744;-2.07366
-0.0259082500000000;-55.9744;-2.07266
-0.0258957500000000;-55.9744;-2.07166
-0.0258832500000000;-55.9744;-2.07066
-0.0258707500000000;-55.9744;-2.06966
-0.0258582500000000;-55.9744;-2.06866
-0.0258457500000000;-55.9744;-2.06766
-0.0258332500000000;-55.9744;-2.06666
-0.0258207500000000;-55.9744;-2.06566
-0.0258082500000000;-55.9744;-2.06466
-0.0257957500000000;-55.9744;-2.06366
-0.0257832500000000;-55.9744;-2.06266
-0.0257707500000000;-55.9744;-2.06166
-0.0257582500000000;-55.9744;-2.06066
-0.0257457500000000;-55.9744;-2.05966
-0.0257332500000000;-55.9744;-2.05866
-0.0257207500000000;-55.9744;-2.05766
-0.0257082500000000;-55.9744;-2.05666
-0.0256957500000000;-55.9744;-2.05566
-0.0256832500000000;-55.9744;-2.05466
-0.0256707500000000;-55.9744;-2.05366
-0.0256582500000000;-55.9744;-2.05266
-0.0256457500000000;-55.9744;-2.05166
-0.0256332500000000;-55.9744;-2.05066
-0.0256207500000000;-55.9744;-2.04966
-0.0256082500000000;-55.9744;-2.04866
-0.0255957500000000;-55.9744;-2.04766
-0.0255832500000000;-55.9744;-2.04666
-0.0255707500000000;-55.9744;-2.04566
-0.0255582500000000;-55.9744;-2.04466
-0.0255457500000000;-55.9744;-2.04366
-0.0255332500000000;-55.9744;-2.04266
-0.0255207500000000;-55.9744;-2.04166
-0.0255082500000000;-55.9744;-2.04066
-0.0254957500000000;-55.9744;-2.03966
-0.0254832500000000;-55.9744;-2.03866
-0.0254707500000000;-55.9744;-2.03766
-0.0254582500000000;-55.9651;-2.03666
-0.0254457500000000;-55.9496;-2.03566
-0.0254332500000000;-55.9342;-2.03466
-0.0254207500000000;-55.9188;-2.03366
-0.0254082500000000;-55.9033;-2.03266
-0.0253957500000000;-55.8879;-2.03166
-0.0253832500000000;-55.8725;-2.03066
-0.0253707500000000;-55.8571;-2.02966
-0.0253582500000000;-55.8416;-2.02866
-0.0253457500000000;-55.8262;-2.02766
-0.0253332500000000;-55.8108;-2.02666
-0.0253207500000000;-55.7953;-2.02566
-0.0253082500000000;-55.7799;-2.02466
-0.0252957500000000;-55.7645;-2.02366
-0.0252832500000000;-55.749;-2.02266
-0.0252707500000000;-55.7336;-2.02166
-0.0252582500000000;-55.7182;-2.02066
-0.0252457500000000;-55.7027;-2.01966
-0.0252332500000000;-55.6873;-2.01866
-0.0252207500000000;-55.6719;-2.01766
-0.0252082500000000;-55.6564;-2.01666
-0.0251957500000000;-55.641;-2.01566
-0.0251832500000000;-55.6256;-2.01466
-0.0251707500000000;-55.6102;-2.01366
-0.0251582500000000;-55.5947;-2.01266
-0.0251457500000000;-55.5793;-2.01166
-0.0251332500000000;-55.5639;-2.01066
-0.0251207500000000;-55.5484;-2.00966
-0.0251082500000000;-55.533;-2.00866
-0.0250957500000000;-55.5176;-2.00766
-0.0250832500000000;-55.5021;-2.00666
-0.0250707500000000;-55.4867;-2.00566
-0.0250582500000000;-55.4713;-2.00466
-0.0250457500000000;-55.4633;-2.00366
-0.0250332500000000;-55.4633;-2.00266
-0.0250207500000000;-55.4633;-2.00166
-0.0250082500000000;-55.4633;-2.00066
-0.0249957500000000;-55.4633;-1.99966
-0.0249832500000000;-55.4633;-1.99866
-0.0249707500000000;-55.4633;-1.99766
-0.0249582500000000;-55.4633;-1.99666
-0.0249457500000000;-55.4633;-1.99566
-0.0249332500000000;-55.4633;-1.99466
-0.0249207500000000;-55.4633;-1.99366
-0.0249082500000000;-55.4633;-1.99266
-0.0248957500000000;-55.4633;-1.99166
-0.0248832500000000;-55.4633;-1.99066
-0.0248707500000000;-55.4633;-1.98966
-0.0248582500000000;-55.4633;-1.98866
-0.0248457500000000;-55.4633;-1.98766
-0.0248332500000000;-55.4633;-1.98666
-0.0248207500000000;-55.4633;-1.98566
-0.0248082500000000;-55.4633;-1.98466
-0.0247957500000000;-55.4633;-1.98366
-0.0247832500000000;-55.4633;-1.98266
-0.0247707500000000;-55.4633;-1.98166
-0.0247582500000000;-55.4633;-1.98066
-0.0247457500000000;-55.4633;-1.97966
-0.0247332500000000;-55.4633;-1.97866
-0.0247207500000000;-55.4633;-1.97766
-0.0247082500000000;-55.4633;-1.97666
-0.0246957500000000;-55.4633;-1.97566
-0.0246832500000000;-55.4633;-1.97466
-0.0246707500000000;-55.4633;-1.97366
-0.0246582500000000;-55.4633;-1.97266
-0.0246457500000000;-55.4633;-1.97166
-0.0246332500000000;-55.4633;-1.97066
-0.0246207500000000;-55.4633;-1.96966
-0.0246082500000000;-55.4633;-1.96866
-0.0245957500000000;-55.4633;-1.96766
-0.0245832500000000;-55.4633;-1.96666
-0.0245707500000000;-55.4633;-1.96566
-0.0245582500000000;-55.4633;-1.96466
-0.0245457500000000;-55.4633;-1.96366
-0.0245332500000000;-55.4633;-1.96266
-0.0245207500000000;-55.4633;-1.96166
-0.0245082500000000;-55.4633;-1.96066
-0.0244957500000000;-55.4633;-1.95966
-0.0244832500000000;-55.4633;-1.95866
-0.0244707500000000;-55.4633;-1.95766
-0.0244582500000000;-55.4633;-1.95666
-0.0244457500000000;-55.4633;-1.95566
-0.0244332500000000;-55.4633;-1.95466
-0.0244207500000000;-55.4633;-1.95366
-0.0244082500000000;-55.4633;-1.95266
-0.0243957500000000;-55.4633;-1.95166
-0.0243832500000000;-55.4633;-1.95066
-0.0243707500000000;-55.4633;-1.94966
-0.0243582500000000;-55.4633;-1.94866
-0.0243457500000000;-55.4633;-1.94766
-0.0243332500000000;-55.4633;-1.94666
-0.0243207500000000;-55.4633;-1.94566
-0.0243082500000000;-55.4633;-1.94466
-0.0242957500000000;-55.4633;-1.94366
-0.0242832500000000;-55.4633;-1.94266
-0.0242707500000000;-55.4633;-1.94166
-0.0242582500000000;-55.4633;-1.94066
-0.0242457500000000;-55.4633;-1.93966
-0.0242332500000000;-55.4633;-1.93866
-0.0242207500000000;-55.4633;-1.93766
-0.0242082500000000;-55.4633;-1.93666
-0.0241957500000000;-55.4633;-1.93566
-0.0241832500000000;-55.4633;-1.93466
-0.0241707500000000;-55.4633;-1.93366
-0.0241582500000000;-55.4633;-1.93266
-0.0241457500000000;-55.4633;-1.93166
-0.0241332500000000;-55.4633;-1.93066
-0.0241207500000000;-55.4633;-1.92966
-0.0241082500000000;-55.4633;-1.92866
-0.0240957500000000;-55.4633;-1.92766
-0.0240832500000000;-55.4633;-1.92666
-0.0240707500000000;-55.4633;-1.92566
-0.0240582500000000;-55.4633;-1.92466
-0.0240457500000000;-55.4633;-1.92366
-0.0240332500000000;-55.4633;-1.92266
-0.0240207500000000;-55.4633;-1.92166
-0.0240082500000000;-55.4633;-1.92066
-0.0239957500000000;-55.4633;-1.91966
-0.0239832500000000;-55.4633;-1.91866
-0.0239707500000000;-55.4633;-1.91766
-0.0239582500000000;-55.4633;-1.91666
-0.0239457500000000;-55.4633;-1.91566
-0.0239332500000000;-55.4633;-1.91466
-0.0239207500000000;-55.4633;-1.91366
-0.0239082500000000;-55.4633;-1.91266
-0.0238957500000000;-55.4633;-1.91166
-0.0238832500000000;-55.4633;-1.91066
-0.0238707500000000;-55.4633;-1.90966
-0.0238582500000000;-55.4633;-1.90866
-0.0238457500000000;-55.4633;-1.90766
-0.0238332500000000;-55.4633;-1.90666
-0.0238207500000000;-55.4633;-1.90566
-0.0238082500000000;-55.4633;-1.90466
-0.0237957500000000;-55.4633;-1.90366
-0.0237832500000000;-55.4633;-1.90266
-0.0237707500000000;-55.4633;-1.90166
-0.0237582500000000;-55.4633;-1.90066
-0.0237457500000000;-55.4633;-1.89966
-0.0237332500000000;-55.4633;-1.89866
-0.0237207500000000;-55.4633;-1.89766
-0.0237082500000000;-55.4633;-1.89666
-0.0236957500000000;-55.4633;-1.89566
-0.0236832500000000;-55.4633;-1.89466
-0.0236707500000000;-55.4633;-1.89366
-0.0236582500000000;-55.4633;-1.89266
-0.0236457500000000;-55.4633;-1.89166
-0.0236332500000000;-55.4633;-1.89066
-0.0236207500000000;-55.4633;-1.88966
-0.0236082500000000;-55.4633;-1.88866
-0.0235957500000000;-55.4633;-1.88766
-0.0235832500000000;-55.4633;-1.88666
-0.0235707500000000;-55.4633;-1.88566
-0.0235582500000000;-55.4633;-1.88466
-0.0235457500000000;-55.4633;-1.88366
-0.0235332500000000;-55.4633;-1.88266
-0.0235207500000000;-55.4633;-1.88166
-0.0235082500000000;-55.4633;-1.88066
-0.0234957500000000;-55.4633;-1.87966
-0.0234832500000000;-55.4633;-1.87866
-0.0234707500000000;-55.4633;-1.87766
-0.0234582500000000;-55.4633;-1.87666
-0.0234457500000000;-55.4633;-1.87566
-0.0234332500000000;-55.4633;-1.87466
-0.0234207500000000;-55.4633;-1.87366
-0.0234082500000000;-55.4633;-1.87266
-0.0233957500000000;-55.4633;-1.87166
-0.0233832500000000;-55.4633;-1.87066
-0.0233707500000000;-55.4633;-1.86966
-0.0233582500000000;-55.4633;-1.86866
-0.0233457500000000;-55.4633;-1.86766
-0.0233332500000000;-55.4633;-1.86666
-0.0233207500000000;-55.4633;-1.86566
-0.0233082500000000;-55.4633;-1.86466
-0.0232957500000000;-55.4633;-1.86366
-0.0232832500000000;-55.4633;-1.86266
-0.0232707500000000;-55.4633;-1.86166
-0.0232582500000000;-55.4633;-1.86066
-0.0232457500000000;-55.4633;-1.85966
-0.0232332500000000;-55.4633;-1.85866
-0.0232207500000000;-55.4633;-1.85766
-0.0232082500000000;-55.4633;-1.85666
-0.0231957500000000;-55.4633;-1.85566
-0.0231832500000000;-55.4633;-1.85466
-0.0231707500000000;-55.4633;-1.85366
-0.0231582500000000;-55.4633;-1.85266
-0.0231457500000000;-55.4633;-1.85166
-0.0231332500000000;-55.4633;-1.85066
-0.0231207500000000;-55.4633;-1.84966
-0.0231082500000000;-55.4633;-1.84866
-0.0230957500000000;-55.4633;-1.84766
-0.0230832500000000;-55.4633;-1.84666
-0.0230707500000000;-55.4633;-1.84566
-0.0230582500000000;-55.4633;-1.84466
-0.0230457500000000;-55.4633;-1.84366
-0.0230332500000000;-55.4633;-1.84266
-0.0230207500000000;-55.4633;-1.84166
-0.0230082500000000;-55.4633;-1.84066
-0.0229957500000000;-55.4633;-1.83966
-0.0229832500000000;-55.4633;-1.83866
-0.0229707500000000;-55.4633;-1.83766
-0.0229582500000000;-55.4633;-1.83666
-0.0229457500000000;-55.4633;-1.83566
-0.0229332500000000;-55.4633;-1.83466
-0.0229207500000000;-55.4633;-1.83366
-0.0229082500000000;-55.4633;-1.83266
-0.0228957500000000;-55.4633;-1.83166
-0.0228832500000000;-55.4633;-1.83066
-0.0228707500000000;-55.4633;-1.82966
-0.0228582500000000;-55.4633;-1.82866
-0.0228457500000000;-55.4633;-1.82766
-0.0228332500000000;-55.4633;-1.82666
-0.0228207500000000;-55.4633;-1.82566
-0.0228082500000000;-55.4633;-1.82466
-0.0227957500000000;-55.4633;-1.82366
-0.0227832500000000;-55.4633;-1.82266
-0.0227707500000000;-55.4633;-1.82166
-0.0227582500000000;-55.4633;-1.82066
-0.0227457500000000;-55.4633;-1.81966
-0.0227332500000000;-55.4633;-1.81866
-0.0227207500000000;-55.4633;-1.81766
-0.0227082500000000;-55.4633;-1.81666
-0.0226957500000000;-55.4633;-1.81566
-0.0226832500000000;-55.4633;-1.81466
-0.0226707500000000;-55.4633;-1.81366
-0.0226582500000000;-55.4633;-1.81266
-0.0226457500000000;-55.4633;-1.81166
-0.0226332500000000;-55.4633;-1.81066
-0.0226207500000000;-55.4633;-1.80966
-0.0226082500000000;-55.4633;-1.80866
-0.0225957500000000;-55.4633;-1.80766
-0.0225832500000000;-55.4633;-1.80666
-0.0225707500000000;-55.4633;-1.80566
-0.0225582500000000;-55.4744;-1.80466
-0.0225457500000000;-55.4898;-1.80366
-0.0225332500000000;-55.5053;-1.80266
-0.0225207500000000;-55.5207;-1.80166
-0.0225082500000000;-55.5361;-1.80066
-0.0224957500000000;-55.5516;-1.79966
-0.0224832500000000;-55.567;-1.79866
-0.0224707500000000;-55.5824;-1.79766
-0.0224582500000000;-55.5979;-1.79666
-0.0224457500000000;-55.6133;-1.79566
-0.0224332500000000;-55.6287;-1.79466
-0.0224207500000000;-55.6442;-1.79366
-0.0224082500000000;-55.6596;-1.79266
-0.0223957500000000;-55.675;-1.79166
-0.0223832500000000;-55.6905;-1.79066
-0.0223707500000000;-55.7059;-1.78966
-0.0223582500000000;-55.7213;-1.78866
-0.0223457500000000;-55.7367;-1.78766
-0.0223332500000000;-55.7522;-1.78666
-0.0223207500000000;-55.7676;-1.78566
-0.0223082500000000;-55.783;-1.78466
-0.0222957500000000;-55.7985;-1.78366
-0.0222832500000000;-55.8139;-1.78266
-0.0222707500000000;-55.8293;-1.78166
-0.0222582500000000;-55.8448;-1.78066
-0.0222457500000000;-55.8602;-1.77966
-0.0222332500000000;-55.8756;-1.77866
-0.0222207500000000;-55.8911;-1.77766
-0.0222082500000000;-55.9065;-1.77666
-0.0221957500000000;-55.9219;-1.77566
-0.0221832500000000;-55.9374;-1.77466
-0.0221707500000000;-55.9528;-1.77366
-0.0221582500000000;-55.9682;-1.77266
-0.0221457500000000;-55.9744;-1.77166
-0.0221332500000000;-55.9744;-1.77066
-0.0221207500000000;-55.9744;-1.76966
-0.0221082500000000;-55.9744;-1.76866
-0.0220957500000000;-55.9744;-1.76766
-0.0220832500000000;-55.9744;-1.76666
-0.0220707500000000;-55.9744;-1.76566
-0.0220582500000000;-55.9744;-1.76466
-0.0220457500000000;-55.9744;-1.76366
-0.0220332500000000;-55.9744;-1.76266
-0.0220207500000000;-55.9744;-1.76166
-0.0220082500000000;-55.9744;-1.76066
-0.0219957500000000;-55.9744;-1.75966
-0.0219832500000000;-55.9744;-1.75866
-0.0219707500000000;-55.9744;-1.75766
-0.0219582500000000;-55.9744;-1.75666
-0.0219457500000000;-55.9744;-1.75566
-0.0219332500000000;-55.9744;-1.75466
-0.0219207500000000;-55.9744;-1.75366
-0.0219082500000000;-55.9744;-1.75266
-0.0218957500000000;-55.9744;-1.75166
-0.0218832500000000;-55.9744;-1.75066
-0.0218707500000000;-55.9744;-1.74966
-0.0218582500000000;-55.9744;-1.74866
-0.0218457500000000;-55.9744;-1.74766
-0.0218332500000000;-55.9744;-1.74666
-0.0218207500000000;-55.9744;-1.74566
-0.0218082500000000;-55.9744;-1.74466
-0.0217957500000000;-55.9744;-1.74366
-0.0217832500000000;-55.9744;-1.74266
-0.0217707500000000;-55.9744;-1.74166
-0.0217582500000000;-55.9744;-1.74066
-0.0217457500000000;-55.9744;-1.73966
-0.0217332500000000;-55.9744;-1.73866
-0.0217207500000000;-55.9744;-1.73766
-0.0217082500000000;-55.9744;-1.73666
-0.0216957500000000;-55.9744;-1.73566
-0.0216832500000000;-55.9744;-1.73466
-0.0216707500000000;-55.9744;-1.73366
-0.0216582500000000;-55.9744;-1.73266
-0.0216457500000000;-55.9744;-1.73166
-0.0216332500000000;-55.9744;-1.73066
-0.0216207500000000;-55.9744;-1.72966
-0.0216082500000000;-55.9744;-1.72866
-0.0215957500000000;-55.9744;-1.72766
-0.0215832500000000;-55.9744;-1.72666
-0.0215707500000000;-55.9744;-1.72566
-0.0215582500000000;-55.9744;-1.72466
-0.0215457500000000;-55.9744;-1.72366
-0.0215332500000000;-55.9744;-1.72266
-0.0215207500000000;-55.9744;-1.72166
-0.0215082500000000;-55.9744;-1.72066
-0.0214957500000000;-55.9744;-1.71966
-0.0214832500000000;-55.9744;-1.71866
-0.0214707500000000;-55.9744;-1.71766
-0.0214582500000000;-55.9744;-1.71666
-0.0214457500000000;-55.9744;-1.71566
-0.0214332500000000;-55.9744;-1.71466
-0.0214207500000000;-55.9744;-1.71366
-0.0214082500000000;-55.9744;-1.71266
-0.0213957500000000;-55.9744;-1.71166
-0.0213832500000000;-55.9744;-1.71066
-0.0213707500000000;-55.9744;-1.70966
-0.0213582500000000;-55.9744;-1.70866
-0.0213457500000000;-55.9744;-1.70766
-0.0213332500000000;-55.9744;-1.70666
-0.0213207500000000;-55.9744;-1.70566
-0.0213082500000000;-55.9744;-1.70466
-0.0212957500000000;-55.9744;-1.70366
-0.0212832500000000;-55.9744;-1.70266
-0.0212707500000000;-55.9744;-1.70166
-0.0212582500000000;-55.9744;-1.70066
-0.0212457500000000;-55.9744;-1.69966
-0.0212332500000000;-55.9744;-1.69866
-0.0212207500000000;-55.9744;-1.69766
-0.0212082500000000;-55.9744;-1.69666
-0.0211957500000000;-55.9744;-1.69566
-0.0211832500000000;-55.9744;-1.69466
-0.0211707500000000;-55.9744;-1.69366
-0.0211582500000000;-55.9744;-1.69266
-0.0211457500000000;-55.9744;-1.69166
-0.0211332500000000;-55.9744;-1.69066
-0.0211207500000000;-55.9744;-1.68966
-0.0211082500000000;-55.9744;-1.68866
-0.0210957500000000;-55.9744;-1.68766
-0.0210832500000000;-55.9744;-1.68666
-0.0210707500000000;-55.9744;-1.68566
-0.0210582500000000;-55.9744;-1.68466
-0.0210457500000000;-55.9744;-1.68366
-0.0210332500000000;-55.9744;-1.68266
-0.0210207500000000;-55.9744;-1.68166
-0.0210082500000000;-55.9744;-1.68066
-0.0209957500000000;-55.9744;-1.67966
-0.0209832500000000;-55.9744;-1.67866
-0.0209707500000000;-55.9744;-1.67766
-0.0209582500000000;-55.9744;-1.67666
-0.0209457500000000;-55.9744;-1.67566
-0.0209332500000000;-55.9744;-1.67466
-0.0209207500000000;-55.9744;-1.67366
-0.0209082500000000;-55.9744;-1.67266
-0.0208957500000000;-55.9744;-1.67166
-0.0208832500000000;-55.9744;-1.67066
-0.0208707500000000;-55.9744;-1.66966
-0.0208582500000000;-55.9744;-1.66866
-0.0208457500000000;-55.9744;-1.66766
-0.0208332500000000;-55.9744;-1.66666
-0.0208207500000000;-55.9744;-1.66566
-0.0208082500000000;-55.9744;-1.66466
-0.0207957500000000;-55.9744;-1.66366
-0.0207832500000000;-55.9744;-1.66266
-0.0207707500000000;-55.9744;-1.66166
-0.0207582500000000;-55.9744;-1.66066
-0.0207457500000000;-55.9744;-1.65966
-0.0207332500000000;-55.9744;-1.65866
-0.0207207500000000;-55.9744;-1.65766
-0.0207082500000000;-55.9744;-1.65666
-0.0206957500000000;-55.9744;-1.65566
-0.0206832500000000;-55.9744;-1.65466
-0.0206707500000000;-55.9744;-1.65366
-0.0206582500000000;-55.9744;-1.65266
-0.0206457500000000;-55.9744;-1.65166
-0.0206332500000000;-55.9744;-1.65066
-0.0206207500000000;-55.9744;-1.64966
-0.0206082500000000;-55.9744;-1.64866
-0.0205957500000000;-55.9744;-1.64766
-0.0205832500000000;-55.9744;-1.64666
-0.0205707500000000;-55.9744;-1.64566
-0.0205582500000000;-55.9744;-1.64466
-0.0205457500000000;-55.9744;-1.64366
-0.0205332500000000;-55.9744;-1.64266
-0.0205207500000000;-55.9744;-1.64166
-0.0205082500000000;-55.9744;-1.64066
-0.0204957500000000;-55.9744;-1.63966
-0.0204832500000000;-55.9744;-1.63866
-0.0204707500000000;-55.9744;-1.63766
-0.0204582500000000;-55.9744;-1.63666
-0.0204457500000000;-55.9744;-1.63566
-0.0204332500000000;-55.9744;-1.63466
-0.0204207500000000;-55.9744;-1.63366
-0.0204082500000000;-55.9744;-1.63266
-0.0203957500000000;-55.9744;-1.63166
-0.0203832500000000;-55.9744;-1.63066
-0.0203707500000000;-55.9744;-1.62966
-0.0203582500000000;-55.9744;-1.62866
-0.0203457500000000;-55.9744;-1.62766
-0.0203332500000000;-55.9744;-1.62666
-0.0203207500000000;-55.9744;-1.62566
-0.0203082500000000;-55.9744;-1.62466
-0.0202957500000000;-55.9744;-1.62366
-0.0202832500000000;-55.9744;-1.62266
-0.0202707500000000;-55.9744;-1.62166
-0.0202582500000000;-55.9744;-1.62066
-0.0202457500000000;-55.9744;-1.61966
-0.0202332500000000;-55.9744;-1.61866
-0.0202207500000000;-55.9744;-1.61766
-0.0202082500000000;-55.9744;-1.61666
-0.0201957500000000;-55.9744;-1.61566
-0.0201832500000000;-55.9744;-1.61466
-0.0201707500000000;-55.9744;-1.61366
-0.0201582500000000;-55.9744;-1.61266
-0.0201457500000000;-55.9744;-1.61166
-0.0201332500000000;-55.9744;-1.61066
-0.0201207500000000;-55.9744;-1.60966
-0.0201082500000000;-55.9744;-1.60866
-0.0200957500000000;-55.9744;-1.60766
-0.0200832500000000;-55.9744;-1.60666
-0.0200707500000000;-55.9744;-1.60566
-0.0200582500000000;-55.9744;-1.60466
-0.0200457500000000;-55.9744;-1.60366
-0.0200332500000000;-55.9744;-1.60266
-0.0200207500000000;-55.9744;-1.60166
-0.0200082500000000;-55.9744;-1.60066
-0.0199957500000000;-55.9744;-1.59966
-0.0199832500000000;-55.9744;-1.59866
-0.0199707500000000;-55.9744;-1.59766
-0.0199582500000000;-55.9744;-1.59666
-0.0199457500000000;-55.9744;-1.59566
-0.0199332500000000;-55.9744;-1.59466
-0.0199207500000000;-55.9744;-1.59366
-0.0199082500000000;-55.9744;-1.59266
-0.0198957500000000;-55.9744;-1.59166
-0.0198832500000000;-55.9744;-1.59066
-0.0198707500000000;-55.9744;-1.58966
-0.0198582500000000;-55.9744;-1.58866
-0.0198457500000000;-55.9744;-1.58766
-0.0198332500000000;-55.9744;-1.58666
-0.0198207500000000;-55.9744;-1.58566
-0.0198082500000000;-55.9744;-1.58466
-0.0197957500000000;-55.9744;-1.58366
-0.0197832500000000;-55.9744;-1.58266
-0.0197707500000000;-55.9744;-1.58166
-0.0197582500000000;-55.9744;-1.58066
-0.0197457500000000;-55.9744;-1.57966
-0.0197332500000000;-55.9744;-1.57866
-0.0197207500000000;-55.9744;-1.57766
-0.0197082500000000;-55.9744;-1.57666
-0.0196957500000000;-55.9744;-1.57566
-0.0196832500000000;-55.9744;-1.57466
-0.0196707500000000;-55.9744;-1.57366
-0.0196582500000000;-55.9744;-1.57266
-0.0196457500000000;-55.9744;-1.57166
-0.0196332500000000;-55.9744;-1.57066
-0.0196207500000000;-55.9744;-1.56966
-0.0196082500000000;-55.9744;-1.56866
-0.0195957500000000;-55.9744;-1.56766
-0.0195832500000000;-55.9744;-1.56666
-0.0195707500000000;-55.9744;-1.56566
-0.0195582500000000;-55.9744;-1.56466
-0.0195457500000000;-55.9744;-1.56366
-0.0195332500000000;-55.9744;-1.56266
-0.0195207500000000;-55.9744;-1.56166
-0.0195082500000000;-55.9744;-1.56066
-0.0194957500000000;-55.9744;-1.55966
-0.0194832500000000;-55.9744;-1.55866
-0.0194707500000000;-55.9744;-1.55766
-0.0194582500000000;-55.9744;-1.55666
-0.0194457500000000;-55.9744;-1.55566
-0.0194332500000000;-55.9744;-1.55466
-0.0194207500000000;-55.9744;-1.55366
-0.0194082500000000;-55.9744;-1.55266
-0.0193957500000000;-55.9744;-1.55166
-0.0193832500000000;-55.9744;-1.55066
-0.0193707500000000;-55.9744;-1.54966
-0.0193582500000000;-55.9744;-1.54866
-0.0193457500000000;-55.9744;-1.54766
-0.0193332500000000;-55.9744;-1.54666
-0.0193207500000000;-55.9744;-1.54566
-0.0193082500000000;-55.9744;-1.54466
-0.0192957500000000;-55.9744;-1.54366
-0.0192832500000000;-55.9744;-1.54266
-0.0192707500000000;-55.9744;-1.54166
-0.0192582500000000;-55.9744;-1.54066
-0.0192457500000000;-55.9854;-1.53966
-0.0192332500000000;-56.0009;-1.53866
-0.0192207500000000;-56.0163;-1.53766
-0.0192082500000000;-56.0317;-1.53666
-0.0191957500000000;-56.0472;-1.53566
-0.0191832500000000;-56.0626;-1.53466
-0.0191707500000000;-56.078;-1.53366
-0.0191582500000000;-56.0935;-1.53266
-0.0191457500000000;-56.1089;-1.53166
-0.0191332500000000;-56.1243;-1.53066
-0.0191207500000000;-56.1398;-1.52966
-0.0191082500000000;-56.1552;-1.52866
-0.0190957500000000;-56.1706;-1.52766
-0.0190832500000000;-56.186;-1.52666
-0.0190707500000000;-56.2015;-1.52566
-0.0190582500000000;-56.2169;-1.52466
-0.0190457500000000;-56.2323;-1.52366
-0.0190332500000000;-56.2478;-1.52266
-0.0190207500000000;-56.2632;-1.52166
-0.0190082500000000;-56.2786;-1.52066
-0.0189957500000000;-56.2941;-1.51966
-0.0189832500000000;-56.3095;-1.51866
-0.0189707500000000;-56.3249;-1.51766
-0.0189582500000000;-56.3404;-1.51666
-0.0189457500000000;-56.3558;-1.51566
-0.0189332500000000;-56.3712;-1.51466
-0.0189207500000000;-56.3867;-1.51366
-0.0189082500000000;-56.4021;-1.51266
-0.0188957500000000;-56.4175;-1.51166
-0.0188832500000000;-56.4329;-1.51066
-0.0188707500000000;-56.4484;-1.50966
-0.0188582500000000;-56.4638;-1.50866
-0.0188457500000000;-56.4792;-1.50766
-0.0188332500000000;-56.4856;-1.50666
-0.0188207500000000;-56.4856;-1.50566
-0.0188082500000000;-56.4856;-1.50466
-0.0187957500000000;-56.4856;-1.50366
-0.0187832500000000;-56.4856;-1.50266
-0.0187707500000000;-56.4856;-1.50166
-0.0187582500000000;-56.4856;-1.50066
-0.0187457500000000;-56.4856;-1.49966
-0.0187332500000000;-56.4856;-1.49866
-0.0187207500000000;-56.4856;-1.49766
-0.0187082500000000;-56.4856;-1.49666
-0.0186957500000000;-56.4856;-1.49566
-0.0186832500000000;-56.4856;-1.49466
-0.0186707500000000;-56.4856;-1.49366
-0.0186582500000000;-56.4856;-1.49266
-0.0186457500000000;-56.4856;-1.49166
-0.0186332500000000;-56.4856;-1.49066
-0.0186207500000000;-56.4856;-1.48966
-0.0186082500000000;-56.4856;-1.48866
-0.0185957500000000;-56.4856;-1.48766
-0.0185832500000000;-56.4856;-1.48666
-0.0185707500000000;-56.4856;-1.48566
-0.0185582500000000;-56.4856;-1.48466
-0.0185457500000000;-56.4856;-1.48366
-0.0185332500000000;-56.4856;-1.48266
-0.0185207500000000;-56.4856;-1.48166
-0.0185082500000000;-56.4856;-1.48066
-0.0184957500000000;-56.4856;-1.47966
-0.0184832500000000;-56.4856;-1.47866
-0.0184707500000000;-56.4856;-1.47766
-0.0184582500000000;-56.4856;-1.47666
-0.0184457500000000;-56.4856;-1.47566
-0.0184332500000000;-56.4856;-1.47466
-0.0184207500000000;-56.4856;-1.47366
-0.0184082500000000;-56.4856;-1.47266
-0.0183957500000000;-56.4856;-1.47166
-0.0183832500000000;-56.4856;-1.47066
-0.0183707500000000;-56.4856;-1.46966
-0.0183582500000000;-56.4856;-1.46866
-0.0183457500000000;-56.4856;-1.46766
-0.0183332500000000;-56.4856;-1.46666
-0.0183207500000000;-56.4856;-1.46566
-0.0183082500000000;-56.4856;-1.46466
-0.0182957500000000;-56.4856;-1.46366
-0.0182832500000000;-56.4856;-1.46266
-0.0182707500000000;-56.4856;-1.46166
-0.0182582500000000;-56.4856;-1.46066
-0.0182457500000000;-56.4856;-1.45966
-0.0182332500000000;-56.4856;-1.45866
-0.0182207500000000;-56.4856;-1.45766
-0.0182082500000000;-56.4856;-1.45666
-0.0181957500000000;-56.4856;-1.45566
-0.0181832500000000;-56.4856;-1.45466
-0.0181707500000000;-56.4856;-1.45366
-0.0181582500000000;-56.4856;-1.45266
-0.0181457500000000;-56.4856;-1.45166
-0.0181332500000000;-56.4856;-1.45066
-0.0181207500000000;-56.4856;-1.44966
-0.0181082500000000;-56.4856;-1.44866
-0.0180957500000000;-56.4856;-1.44766
-0.0180832500000000;-56.4856;-1.44666
-0.0180707500000000;-56.4856;-1.44566
-0.0180582500000000;-56.4856;-1.44466
-0.0180457500000000;-56.4856;-1.44366
-0.0180332500000000;-56.4856;-1.44266
-0.0180207500000000;-56.4856;-1.44166
-0.0180082500000000;-56.4856;-1.44066
-0.0179957500000000;-56.4856;-1.43966
-0.0179832500000000;-56.4856;-1.43866
-0.0179707500000000;-56.4856;-1.43766
-0.0179582500000000;-56.4856;-1.43666
-0.0179457500000000;-56.4856;-1.43566
-0.0179332500000000;-56.4856;-1.43466
-0.0179207500000000;-56.4856;-1.43366
-0.0179082500000000;-56.4856;-1.43266
-0.0178957500000000;-56.4856;-1.43166
-0.0178832500000000;-56.4856;-1.43066
-0.0178707500000000;-56.4856;-1.42966
-0.0178582500000000;-56.4856;-1.42866
-0.0178457500000000;-56.4856;-1.42766
-0.0178332500000000;-56.4856;-1.42666
-0.0178207500000000;-56.4856;-1.42566
-0.0178082500000000;-56.4856;-1.42466
-0.0177957500000000;-56.4856;-1.42366
-0.0177832500000000;-56.4856;-1.42266
-0.0177707500000000;-56.4856;-1.42166
-0.0177582500000000;-56.4856;-1.42066
-0.0177457500000000;-56.4856;-1.41966
-0.0177332500000000;-56.4856;-1.41866
-0.0177207500000000;-56.4856;-1.41766
-0.0177082500000000;-56.4856;-1.41666
-0.0176957500000000;-56.4856;-1.41566
-0.0176832500000000;-56.4856;-1.41466
-0.0176707500000000;-56.4856;-1.41366
-0.0176582500000000;-56.4856;-1.41266
-0.0176457500000000;-56.4856;-1.41166
-0.0176332500000000;-56.4856;-1.41066
-0.0176207500000000;-56.4856;-1.40966
-0.0176082500000000;-56.4856;-1.40866
-0.0175957500000000;-56.4856;-1.40766
-0.0175832500000000;-56.4856;-1.40666
-0.0175707500000000;-56.4856;-1.40566
-0.0175582500000000;-56.4856;-1.40466
-0.0175457500000000;-56.4856;-1.40366
-0.0175332500000000;-56.4856;-1.40266
-0.0175207500000000;-56.4856;-1.40166
-0.0175082500000000;-56.4856;-1.40066
-0.0174957500000000;-56.4856;-1.39966
-0.0174832500000000;-56.4856;-1.39866
-0.0174707500000000;-56.4856;-1.39766
-0.0174582500000000;-56.4856;-1.39666
-0.0174457500000000;-56.4856;-1.39566
-0.0174332500000000;-56.4856;-1.39466
-0.0174207500000000;-56.4856;-1.39366
-0.0174082500000000;-56.4856;-1.39266
-0.0173957500000000;-56.4856;-1.39166
-0.0173832500000000;-56.4856;-1.39066
-0.0173707500000000;-56.4856;-1.38966
-0.0173582500000000;-56.4856;-1.38866
-0.0173457500000000;-56.4856;-1.38766
-0.0173332500000000;-56.4856;-1.38666
-0.0173207500000000;-56.4856;-1.38566
-0.0173082500000000;-56.4856;-1.38466
-0.0172957500000000;-56.4856;-1.38366
-0.0172832500000000;-56.4856;-1.38266
-0.0172707500000000;-56.4856;-1.38166
-0.0172582500000000;-56.4856;-1.38066
-0.0172457500000000;-56.4856;-1.37966
-0.0172332500000000;-56.4856;-1.37866
-0.0172207500000000;-56.4856;-1.37766
-0.0172082500000000;-56.4856;-1.37666
-0.0171957500000000;-56.4856;-1.37566
-0.0171832500000000;-56.4844;-1.37466
-0.0171707500000000;-56.4689;-1.37366
-0.0171582500000000;-56.4535;-1.37266
-0.0171457500000000;-56.4381;-1.37166
-0.0171332500000000;-56.4226;-1.37066
-0.0171207500000000;-56.4072;-1.36966
-0.0171082500000000;-56.3918;-1.36866
-0.0170957500000000;-56.3764;-1.36766
-0.0170832500000000;-56.3609;-1.36666
-0.0170707500000000;-56.3455;-1.36566
-0.0170582500000000;-56.3301;-1.36466
-0.0170457500000000;-56.3146;-1.36366
-0.0170332500000000;-56.2992;-1.36266
-0.0170207500000000;-56.2838;-1.36166
-0.0170082500000000;-56.2683;-1.36066
-0.0169957500000000;-56.2529;-1.35966
-0.0169832500000000;-56.2375;-1.35866
-0.0169707500000000;-56.222;-1.35766
-0.0169582500000000;-56.2066;-1.35666
-0.0169457500000000;-56.1912;-1.35566
-0.0169332500000000;-56.1757;-1.35466
-0.0169207500000000;-56.1603;-1.35366
-0.0169082500000000;-56.1449;-1.35266
-0.0168957500000000;-56.1294;-1.35166
-0.0168832500000000;-56.114;-1.35066
-0.0168707500000000;-56.0986;-1.34966
-0.0168582500000000;-56.0832;-1.34866
-0.0168457500000000;-56.0677;-1.34766
-0.0168332500000000;-56.0523;-1.34666
-0.0168207500000000;-56.0369;-1.34566
-0.0168082500000000;-56.0214;-1.34466
-0.0167957500000000;-56.006;-1.34366
-0.0167832500000000;-55.9906;-1.34266
-0.0167707500000000;-55.9751;-1.34166
-0.0167582500000000;-55.9744;-1.34066
-0.0167457500000000;-55.9744;-1.33966
-0.0167332500000000;-55.9744;-1.33866
-0.0167207500000000;-55.9744;-1.33766
-0.0167082500000000;-55.9744;-1.33666
-0.0166957500000000;-55.9744;-1.33566
-0.0166832500000000;-55.9744;-1.33466
-0.0166707500000000;-55.9744;-1.33366
-0.0166582500000000;-55.9744;-1.33266
-0.0166457500000000;-55.9744;-1.33166
-0.0166332500000000;-55.9744;-1.33066
-0.0166207500000000;-55.9744;-1.32966
-0.0166082500000000;-55.9744;-1.32866
-0.0165957500000000;-55.9744;-1.32766
-0.0165832500000000;-55.9744;-1.32666
-0.0165707500000000;-55.9744;-1.32566
-0.0165582500000000;-55.9744;-1.32466
-0.0165457500000000;-55.9744;-1.32366
-0.0165332500000000;-55.9744;-1.32266
-0.0165207500000000;-55.9744;-1.32166
-0.0165082500000000;-55.9744;-1.32066
-0.0164957500000000;-55.9744;-1.31966
-0.0164832500000000;-55.9744;-1.31866
-0.0164707500000000;-55.9744;-1.31766
-0.0164582500000000;-55.9744;-1.31666
-0.0164457500000000;-55.9744;-1.31566
-0.0164332500000000;-55.9744;-1.31466
-0.0164207500000000;-55.9744;-1.31366
-0.0164082500000000;-55.9744;-1.31266
-0.0163957500000000;-55.9744;-1.31166
-0.0163832500000000;-55.9744;-1.31066
-0.0163707500000000;-55.9744;-1.30966
-0.0163582500000000;-55.9744;-1.30866
-0.0163457500000000;-55.9744;-1.30766
-0.0163332500000000;-55.9744;-1.30666
-0.0163207500000000;-55.9744;-1.30566
-0.0163082500000000;-55.9744;-1.30466
-0.0162957500000000;-55.9744;-1.30366
-0.0162832500000000;-55.9744;-1.30266
-0.0162707500000000;-55.9744;-1.30166
-0.0162582500000000;-55.9744;-1.30066
-0.0162457500000000;-55.9744;-1.29966
-0.0162332500000000;-55.9744;-1.29866
-0.0162207500000000;-55.9744;-1.29766
-0.0162082500000000;-55.9744;-1.29666
-0.0161957500000000;-55.9744;-1.29566
-0.0161832500000000;-55.9744;-1.29466
-0.0161707500000000;-55.9744;-1.29366
-0.0161582500000000;-55.9744;-1.29266
-0.0161457500000000;-55.9744;-1.29166
-0.0161332500000000;-55.9744;-1.29066
-0.0161207500000000;-55.9744;-1.28966
-0.0161082500000000;-55.9744;-1.28866
-0.0160957500000000;-55.9744;-1.28766
-0.0160832500000000;-55.9744;-1.28666
-0.0160707500000000;-55.9744;-1.28566
-0.0160582500000000;-55.9744;-1.28466
-0.0160457500000000;-55.9744;-1.28366
-0.0160332500000000;-55.9744;-1.28266
-0.0160207500000000;-55.9744;-1.28166
-0.0160082500000000;-55.9744;-1.28066
-0.0159957500000000;-55.9744;-1.27966
-0.0159832500000000;-55.9744;-1.27866
-0.0159707500000000;-55.9744;-1.27766
-0.0159582500000000;-55.9744;-1.27666
-0.0159457500000000;-55.9744;-1.27566
-0.0159332500000000;-55.9744;-1.27466
-0.0159207500000000;-55.9744;-1.27366
-0.0159082500000000;-55.9744;-1.27266
-0.0158957500000000;-55.9744;-1.27166
-0.0158832500000000;-55.9744;-1.27066
-0.0158707500000000;-55.9744;-1.26966
-0.0158582500000000;-55.9744;-1.26866
-0.0158457500000000;-55.9744;-1.26766
-0.0158332500000000;-55.9744;-1.26666
-0.0158207500000000;-55.9744;-1.26566
-0.0158082500000000;-55.9744;-1.26466
-0.0157957500000000;-55.9744;-1.26366
-0.0157832500000000;-55.9744;-1.26266
-0.0157707500000000;-55.9744;-1.26166
-0.0157582500000000;-55.9744;-1.26066
-0.0157457500000000;-55.9744;-1.25966
-0.0157332500000000;-55.9744;-1.25866
-0.0157207500000000;-55.9744;-1.25766
-0.0157082500000000;-55.9744;-1.25666
-0.0156957500000000;-55.9744;-1.25566
-0.0156832500000000;-55.9744;-1.25466
-0.0156707500000000;-55.9744;-1.25366
-0.0156582500000000;-55.9744;-1.25266
-0.0156457500000000;-55.9744;-1.25166
-0.0156332500000000;-55.9744;-1.25066
-0.0156207500000000;-55.9744;-1.24966
-0.0156082500000000;-55.9744;-1.24866
-0.0155957500000000;-55.9744;-1.24766
-0.0155832500000000;-55.9744;-1.24666
-0.0155707500000000;-55.9744;-1.24566
-0.0155582500000000;-55.9744;-1.24466
-0.0155457500000000;-55.9744;-1.24366
-0.0155332500000000;-55.9744;-1.24266
-0.0155207500000000;-55.9656;-1.24166
-0.0155082500000000;-55.9501;-1.24066
-0.0154957500000000;-55.9347;-1.23966
-0.0154832500000000;-55.9193;-1.23866
-0.0154707500000000;-55.9038;-1.23766
-0.0154582500000000;-55.8884;-1.23666
-0.0154457500000000;-55.873;-1.23566
-0.0154332500000000;-55.8575;-1.23466
-0.0154207500000000;-55.8421;-1.23366
-0.0154082500000000;-55.8267;-1.23266
-0.0153957500000000;-55.8112;-1.23166
-0.0153832500000000;-55.7958;-1.23066
-0.0153707500000000;-55.7804;-1.22966
-0.0153582500000000;-55.7649;-1.22866
-0.0153457500000000;-55.7495;-1.22766
-0.0153332500000000;-55.7341;-1.22666
-0.0153207500000000;-55.7187;-1.22566
-0.0153082500000000;-55.7032;-1.22466
-0.0152957500000000;-55.6878;-1.22366
-0.0152832500000000;-55.6724;-1.22266
-0.0152707500000000;-55.6569;-1.22166
-0.0152582500000000;-55.6415;-1.22066
-0.0152457500000000;-55.6261;-1.21966
-0.0152332500000000;-55.6106;-1.21866
-0.0152207500000000;-55.5952;-1.21766
-0.0152082500000000;-55.5798;-1.21666
-0.0151957500000000;-55.5643;-1.21566
-0.0151832500000000;-55.5489;-1.21466
-0.0151707500000000;-55.5335;-1.21366
-0.0151582500000000;-55.518;-1.21266
-0.0151457500000000;-55.5026;-1.21166
-0.0151332500000000;-55.4872;-1.21066
-0.0151207500000000;-55.4718;-1.20966
-0.0151082500000000;-55.4633;-1.20866
-0.0150957500000000;-55.4633;-1.20766
-0.0150832500000000;-55.4633;-1.20666
-0.0150707500000000;-55.4633;-1.20566
-0.0150582500000000;-55.4633;-1.20466
-0.0150457500000000;-55.4633;-1.20366
-0.0150332500000000;-55.4633;-1.20266
-0.0150207500000000;-55.4633;-1.20166
-0.0150082500000000;-55.4633;-1.20066
-0.0149957500000000;-55.4633;-1.19966
-0.0149832500000000;-55.4633;-1.19866
-0.0149707500000000;-55.4633;-1.19766
-0.0149582500000000;-55.4633;-1.19666
-0.0149457500000000;-55.4633;-1.19566
-0.0149332500000000;-55.4633;-1.19466
-0.0149207500000000;-55.4633;-1.19366
-0.0149082500000000;-55.4633;-1.19266
-0.0148957500000000;-55.4633;-1.19166
-0.0148832500000000;-55.4633;-1.19066
-0.0148707500000000;-55.4633;-1.18966
-0.0148582500000000;-55.4633;-1.18866
-0.0148457500000000;-55.4633;-1.18766
-0.0148332500000000;-55.4633;-1.18666
-0.0148207500000000;-55.4633;-1.18566
-0.0148082500000000;-55.4633;-1.18466
-0.0147957500000000;-55.4633;-1.18366
-0.0147832500000000;-55.4633;-1.18266
-0.0147707500000000;-55.4633;-1.18166
-0.0147582500000000;-55.4633;-1.18066
-0.0147457500000000;-55.4633;-1.17966
-0.0147332500000000;-55.4633;-1.17866
-0.0147207500000000;-55.4633;-1.17766
-0.0147082500000000;-55.4633;-1.17666
-0.0146957500000000;-55.4633;-1.17566
-0.0146832500000000;-55.4633;-1.17466
-0.0146707500000000;-55.4633;-1.17366
-0.0146582500000000;-55.4633;-1.17266
-0.0146457500000000;-55.4633;-1.17166
-0.0146332500000000;-55.4633;-1.17066
-0.0146207500000000;-55.4633;-1.16966
-0.0146082500000000;-55.4633;-1.16866
-0.0145957500000000;-55.4633;-1.16766
-0.0145832500000000;-55.4633;-1.16666
-0.0145707500000000;-55.4633;-1.16566
-0.0145582500000000;-55.4633;-1.16466
-0.0145457500000000;-55.4633;-1.16366
-0.0145332500000000;-55.4633;-1.16266
-0.0145207500000000;-55.4633;-1.16166
-0.0145082500000000;-55.4633;-1.16066
-0.0144957500000000;-55.4633;-1.15966
-0.0144832500000000;-55.4633;-1.15866
-0.0144707500000000;-55.4633;-1.15766
-0.0144582500000000;-55.4633;-1.15666
-0.0144457500000000;-55.4633;-1.15566
-0.0144332500000000;-55.4633;-1.15466
-0.0144207500000000;-55.4633;-1.15366
-0.0144082500000000;-55.4633;-1.15266
-0.0143957500000000;-55.4633;-1.15166
-0.0143832500000000;-55.4633;-1.15066
-0.0143707500000000;-55.4633;-1.14966
-0.0143582500000000;-55.4633;-1.14866
-0.0143457500000000;-55.4633;-1.14766
-0.0143332500000000;-55.4633;-1.14666
-0.0143207500000000;-55.4633;-1.14566
-0.0143082500000000;-55.4633;-1.14466
-0.0142957500000000;-55.4633;-1.14366
-0.0142832500000000;-55.4633;-1.14266
-0.0142707500000000;-55.4633;-1.14166
-0.0142582500000000;-55.4633;-1.14066
-0.0142457500000000;-55.4633;-1.13966
-0.0142332500000000;-55.4633;-1.13866
-0.0142207500000000;-55.4633;-1.13766
-0.0142082500000000;-55.4633;-1.13666
-0.0141957500000000;-55.4633;-1.13566
-0.0141832500000000;-55.4633;-1.13466
-0.0141707500000000;-55.4633;-1.13366
-0.0141582500000000;-55.4633;-1.13266
-0.0141457500000000;-55.4633;-1.13166
-0.0141332500000000;-55.4633;-1.13066
-0.0141207500000000;-55.4633;-1.12966
-0.0141082500000000;-55.4633;-1.12866
-0.0140957500000000;-55.4633;-1.12766
-0.0140832500000000;-55.4633;-1.12666
-0.0140707500000000;-55.4633;-1.12566
-0.0140582500000000;-55.4633;-1.12466
-0.0140457500000000;-55.4633;-1.12366
-0.0140332500000000;-55.4633;-1.12266
-0.0140207500000000;-55.4633;-1.12166
-0.0140082500000000;-55.4633;-1.12066
-0.0139957500000000;-55.4633;-1.11966
-0.0139832500000000;-55.4633;-1.11866
-0.0139707500000000;-55.4633;-1.11766
-0.0139582500000000;-55.4633;-1.11666
-0.0139457500000000;-55.4633;-1.11566
-0.0139332500000000;-55.4633;-1.11466
-0.0139207500000000;-55.4633;-1.11366
-0.0139082500000000;-55.4633;-1.11266
-0.0138957500000000;-55.4633;-1.11166
-0.0138832500000000;-55.4633;-1.11066
-0.0138707500000000;-55.4633;-1.10966
-0.0138582500000000;-55.4633;-1.10866
-0.0138457500000000;-55.4633;-1.10766
-0.0138332500000000;-55.4633;-1.10666
-0.0138207500000000;-55.4633;-1.10566
-0.0138082500000000;-55.4633;-1.10466
-0.0137957500000000;-55.4633;-1.10366
-0.0137832500000000;-55.4633;-1.10266
-0.0137707500000000;-55.4633;-1.10166
-0.0137582500000000;-55.4633;-1.10066
-0.0137457500000000;-55.4633;-1.09966
-0.0137332500000000;-55.4633;-1.09866
-0.0137207500000000;-55.4633;-1.09766
-0.0137082500000000;-55.4633;-1.09666
-0.0136957500000000;-55.4633;-1.09566
-0.0136832500000000;-55.4633;-1.09466
-0.0136707500000000;-55.4633;-1.09366
-0.0136582500000000;-55.4633;-1.09266
-0.0136457500000000;-55.4633;-1.09166
-0.0136332500000000;-55.4633;-1.09066
-0.0136207500000000;-55.4633;-1.08966
-0.0136082500000000;-55.4633;-1.08866
-0.0135957500000000;-55.4633;-1.08766
-0.0135832500000000;-55.4633;-1.08666
-0.0135707500000000;-55.4633;-1.08566
-0.0135582500000000;-55.4633;-1.08466
-0.0135457500000000;-55.4633;-1.08366
-0.0135332500000000;-55.4633;-1.08266
-0.0135207500000000;-55.4633;-1.08166
-0.0135082500000000;-55.4633;-1.08066
-0.0134957500000000;-55.4633;-1.07966
-0.0134832500000000;-55.4633;-1.07866
-0.0134707500000000;-55.4633;-1.07766
-0.0134582500000000;-55.4633;-1.07666
-0.0134457500000000;-55.4633;-1.07566
-0.0134332500000000;-55.4633;-1.07466
-0.0134207500000000;-55.4633;-1.07366
-0.0134082500000000;-55.4633;-1.07266
-0.0133957500000000;-55.4633;-1.07166
-0.0133832500000000;-55.4633;-1.07066
-0.0133707500000000;-55.4633;-1.06966
-0.0133582500000000;-55.4633;-1.06866
-0.0133457500000000;-55.4633;-1.06766
-0.0133332500000000;-55.4633;-1.06666
-0.0133207500000000;-55.4633;-1.06566
-0.0133082500000000;-55.4633;-1.06466
-0.0132957500000000;-55.4633;-1.06366
-0.0132832500000000;-55.4633;-1.06266
-0.0132707500000000;-55.4633;-1.06166
-0.0132582500000000;-55.4633;-1.06066
-0.0132457500000000;-55.4633;-1.05966
-0.0132332500000000;-55.4633;-1.05866
-0.0132207500000000;-55.4633;-1.05766
-0.0132082500000000;-55.4633;-1.05666
-0.0131957500000000;-55.4633;-1.05566
-0.0131832500000000;-55.4633;-1.05466
-0.0131707500000000;-55.4633;-1.05366
-0.0131582500000000;-55.4633;-1.05266
-0.0131457500000000;-55.4633;-1.05166
-0.0131332500000000;-55.4633;-1.05066
-0.0131207500000000;-55.4633;-1.04966
-0.0131082500000000;-55.4633;-1.04866
-0.0130957500000000;-55.4633;-1.04766
-0.0130832500000000;-55.4633;-1.04666
-0.0130707500000000;-55.4633;-1.04566
-0.0130582500000000;-55.4633;-1.04466
-0.0130457500000000;-55.4633;-1.04366
-0.0130332500000000;-55.4633;-1.04266
-0.0130207500000000;-55.4633;-1.04166
-0.0130082500000000;-55.4633;-1.04066
-0.0129957500000000;-55.4633;-1.03966
-0.0129832500000000;-55.4633;-1.03866
-0.0129707500000000;-55.4633;-1.03766
-0.0129582500000000;-55.4633;-1.03666
-0.0129457500000000;-55.4633;-1.03566
-0.0129332500000000;-55.4633;-1.03466
-0.0129207500000000;-55.4633;-1.03366
-0.0129082500000000;-55.4633;-1.03266
-0.0128957500000000;-55.4633;-1.03166
-0.0128832500000000;-55.4633;-1.03066
-0.0128707500000000;-55.4633;-1.02966
-0.0128582500000000;-55.4633;-1.02866
-0.0128457500000000;-55.4633;-1.02766
-0.0128332500000000;-55.4633;-1.02666
-0.0128207500000000;-55.4633;-1.02566
-0.0128082500000000;-55.4633;-1.02466
-0.0127957500000000;-55.4633;-1.02366
-0.0127832500000000;-55.4633;-1.02266
-0.0127707500000000;-55.4633;-1.02166
-0.0127582500000000;-55.4633;-1.02066
-0.0127457500000000;-55.4633;-1.01966
-0.0127332500000000;-55.4633;-1.01866
-0.0127207500000000;-55.4633;-1.01766
-0.0127082500000000;-55.4633;-1.01666
-0.0126957500000000;-55.4633;-1.01566
-0.0126832500000000;-55.4633;-1.01466
-0.0126707500000000;-55.4633;-1.01366
-0.0126582500000000;-55.4633;-1.01266
-0.0126457500000000;-55.4633;-1.01166
-0.0126332500000000;-55.4633;-1.01066
-0.0126207500000000;-55.4633;-1.00966
-0.0126082500000000;-55.4633;-1.00866
-0.0125957500000000;-55.4633;-1.00766
-0.0125832500000000;-55.4633;-1.00666
-0.0125707500000000;-55.4633;-1.00566
-0.0125582500000000;-55.4633;-1.00466
-0.0125457500000000;-55.4633;-1.00366
-0.0125332500000000;-55.4633;-1.00266
-0.0125207500000000;-55.4633;-1.00166
-0.0125082500000000;-55.4633;-1.00066
-0.0124957500000000;-55.4633;-0.99966
-0.0124832500000000;-55.4633;-0.99866
-0.0124707500000000;-55.4633;-0.99766
-0.0124582500000000;-55.4633;-0.99666
-0.0124457500000000;-55.4633;-0.99566
-0.0124332500000000;-55.4633;-0.99466
-0.0124207500000000;-55.4633;-0.99366
-0.0124082500000000;-55.4633;-0.99266
-0.0123957500000000;-55.4633;-0.99166
-0.0123832500000000;-55.4633;-0.99066
-0.0123707500000000;-55.4633;-0.98966
-0.0123582500000000;-55.4633;-0.98866
-0.0123457500000000;-55.4633;-0.98766
-0.0123332500000000;-55.4633;-0.98666
-0.0123207500000000;-55.4633;-0.98566
-0.0123082500000000;-55.4633;-0.98466
-0.0122957500000000;-55.4633;-0.98366
-0.0122832500000000;-55.4633;-0.98266
-0.0122707500000000;-55.4633;-0.98166
-0.0122582500000000;-55.4633;-0.98066
-0.0122457500000000;-55.4633;-0.97966
-0.0122332500000000;-55.4633;-0.97866
-0.0122207500000000;-55.4633;-0.97766
-0.0122082500000000;-55.4633;-0.97666
-0.0121957500000000;-55.4633;-0.97566
-0.0121832500000000;-55.4633;-0.97466
-0.0121707500000000;-55.4633;-0.97366
-0.0121582500000000;-55.4633;-0.97266
-0.0121457500000000;-55.4633;-0.97166
-0.0121332500000000;-55.4633;-0.97066
-0.0121207500000000;-55.4633;-0.96966
-0.0121082500000000;-55.4633;-0.96866
-0.0120957500000000;-55.4633;-0.96766
-0.0120832500000000;-55.4633;-0.96666
-0.0120707500000000;-55.4633;-0.96566
-0.0120582500000000;-55.4633;-0.96466
-0.0120457500000000;-55.4633;-0.96366
-0.0120332500000000;-55.4633;-0.96266
-0.0120207500000000;-55.4633;-0.96166
-0.0120082500000000;-55.4633;-0.96066
-0.0119957500000000;-55.4633;-0.95966
-0.0119832500000000;-55.4633;-0.95866
-0.0119707500000000;-55.4633;-0.95766
-0.0119582500000000;-55.4633;-0.95666
-0.0119457500000000;-55.4633;-0.95566
-0.0119332500000000;-55.4633;-0.95466
-0.0119207500000000;-55.4633;-0.95366
-0.0119082500000000;-55.4633;-0.95266
-0.0118957500000000;-55.4633;-0.95166
-0.0118832500000000;-55.4633;-0.95066
-0.0118707500000000;-55.4633;-0.94966
-0.0118582500000000;-55.4633;-0.94866
-0.0118457500000000;-55.4633;-0.94766
-0.0118332500000000;-55.4633;-0.94666
-0.0118207500000000;-55.4633;-0.94566
-0.0118082500000000;-55.4633;-0.94466
-0.0117957500000000;-55.4633;-0.94366
-0.0117832500000000;-55.4633;-0.94266
-0.0117707500000000;-55.4633;-0.94166
-0.0117582500000000;-55.4633;-0.94066
-0.0117457500000000;-55.4633;-0.93966
-0.0117332500000000;-55.4633;-0.93866
-0.0117207500000000;-55.4633;-0.93766
-0.0117082500000000;-55.4633;-0.93666
-0.0116957500000000;-55.4633;-0.93566
-0.0116832500000000;-55.4633;-0.93466
-0.0116707500000000;-55.4633;-0.93366
-0.0116582500000000;-55.4633;-0.93266
-0.0116457500000000;-55.4633;-0.93166
-0.0116332500000000;-55.4633;-0.93066
-0.0116207500000000;-55.4633;-0.92966
-0.0116082500000000;-55.4633;-0.92866
-0.0115957500000000;-55.4633;-0.92766
-0.0115832500000000;-55.4633;-0.92666
-0.0115707500000000;-55.4633;-0.92566
-0.0115582500000000;-55.4633;-0.92466
-0.0115457500000000;-55.4633;-0.92366
-0.0115332500000000;-55.4633;-0.92266
-0.0115207500000000;-55.4633;-0.92166
-0.0115082500000000;-55.4633;-0.92066
-0.0114957500000000;-55.4633;-0.91966
-0.0114832500000000;-55.4633;-0.91866
-0.0114707500000000;-55.4633;-0.91766
-0.0114582500000000;-55.4633;-0.91666
-0.0114457500000000;-55.4633;-0.91566
-0.0114332500000000;-55.4633;-0.91466
-0.0114207500000000;-55.4633;-0.91366
-0.0114082500000000;-55.4633;-0.91266
-0.0113957500000000;-55.4633;-0.91166
-0.0113832500000000;-55.4633;-0.91066
-0.0113707500000000;-55.4633;-0.90966
-0.0113582500000000;-55.4633;-0.90866
-0.0113457500000000;-55.4633;-0.90766
-0.0113332500000000;-55.4633;-0.90666
-0.0113207500000000;-55.4633;-0.90566
-0.0113082500000000;-55.4633;-0.90466
-0.0112957500000000;-55.4633;-0.90366
-0.0112832500000000;-55.4633;-0.90266
-0.0112707500000000;-55.4633;-0.90166
-0.0112582500000000;-55.4633;-0.90066
-0.0112457500000000;-55.4633;-0.89966
-0.0112332500000000;-55.4633;-0.89866
-0.0112207500000000;-55.4633;-0.89766
-0.0112082500000000;-55.4633;-0.89666
-0.0111957500000000;-55.4633;-0.89566
-0.0111832500000000;-55.4633;-0.89466
-0.0111707500000000;-55.4633;-0.89366
-0.0111582500000000;-55.4633;-0.89266
-0.0111457500000000;-55.4633;-0.89166
-0.0111332500000000;-55.4633;-0.89066
-0.0111207500000000;-55.4633;-0.88966
-0.0111082500000000;-55.4633;-0.88866
-0.0110957500000000;-55.4633;-0.88766
-0.0110832500000000;-55.4633;-0.88666
-0.0110707500000000;-55.4633;-0.88566
-0.0110582500000000;-55.4633;-0.88466
-0.0110457500000000;-55.4633;-0.88366
-0.0110332500000000;-55.4633;-0.88266
-0.0110207500000000;-55.4633;-0.88166
-0.0110082500000000;-55.4633;-0.88066
-0.0109957500000000;-55.4633;-0.87966
-0.0109832500000000;-55.4633;-0.87866
-0.0109707500000000;-55.4633;-0.87766
-0.0109582500000000;-55.4633;-0.87666
-0.0109457500000000;-55.4633;-0.87566
-0.0109332500000000;-55.4633;-0.87466
-0.0109207500000000;-55.4633;-0.87366
-0.0109082500000000;-55.4633;-0.87266
-0.0108957500000000;-55.4633;-0.87166
-0.0108832500000000;-55.4633;-0.87066
-0.0108707500000000;-55.4633;-0.86966
-0.0108582500000000;-55.4633;-0.86866
-0.0108457500000000;-55.4633;-0.86766
-0.0108332500000000;-55.4633;-0.86666
-0.0108207500000000;-55.4633;-0.86566
-0.0108082500000000;-55.4633;-0.86466
-0.0107957500000000;-55.4633;-0.86366
-0.0107832500000000;-55.4633;-0.86266
-0.0107707500000000;-55.4633;-0.86166
-0.0107582500000000;-55.4633;-0.86066
-0.0107457500000000;-55.4633;-0.85966
-0.0107332500000000;-55.4633;-0.85866
-0.0107207500000000;-55.4633;-0.85766
-0.0107082500000000;-55.4633;-0.85666
-0.0106957500000000;-55.4633;-0.85566
-0.0106832500000000;-55.4633;-0.85466
-0.0106707500000000;-55.4633;-0.85366
-0.0106582500000000;-55.4633;-0.85266
-0.0106457500000000;-55.4633;-0.85166
-0.0106332500000000;-55.4633;-0.85066
-0.0106207500000000;-55.4633;-0.84966
-0.0106082500000000;-55.4633;-0.84866
-0.0105957500000000;-55.4633;-0.84766
-0.0105832500000000;-55.4633;-0.84666
-0.0105707500000000;-55.4633;-0.84566
-0.0105582500000000;-55.4623;-0.84466
-0.0105457500000000;-55.4469;-0.84366
-0.0105332500000000;-55.4315;-0.84266
-0.0105207500000000;-55.416;-0.84166
-0.0105082500000000;-55.4006;-0.84066
-0.0104957500000000;-55.3852;-0.83966
-0.0104832500000000;-55.3697;-0.83866
-0.0104707500000000;-55.3543;-0.83766
-0.0104582500000000;-55.3389;-0.83666
-0.0104457500000000;-55.3234;-0.83566
-0.0104332500000000;-55.308;-0.83466
-0.0104207500000000;-55.2926;-0.83366
-0.0104082500000000;-55.2771;-0.83266
-0.0103957500000000;-55.2617;-0.83166
-0.0103832500000000;-55.2463;-0.83066
-0.0103707500000000;-55.2309;-0.82966
-0.0103582500000000;-55.2154;-0.82866
-0.0103457500000000;-55.2;-0.82766
-0.0103332500000000;-55.1846;-0.82666
-0.0103207500000000;-55.1691;-0.82566
-0.0103082500000000;-55.1537;-0.82466
-0.0102957500000000;-55.1383;-0.82366
-0.0102832500000000;-55.1228;-0.82266
-0.0102707500000000;-55.1074;-0.82166
-0.0102582500000000;-55.092;-0.82066
-0.0102457500000000;-55.0765;-0.81966
-0.0102332500000000;-55.0611;-0.81866
-0.0102207500000000;-55.0457;-0.81766
-0.0102082500000000;-55.0302;-0.81666
-0.0101957500000000;-55.0148;-0.81566
-0.0101832500000000;-54.9994;-0.81466
-0.0101707500000000;-54.984;-0.81366
-0.0101582500000000;-54.9685;-0.81266
-0.0101457500000000;-54.9531;-0.81166
-0.0101332500000000;-54.9377;-0.81066
-0.0101207500000000;-54.9222;-0.80966
-0.0101082500000000;-54.9068;-0.80866
-0.0100957500000000;-54.8914;-0.80766
-0.0100832500000000;-54.8759;-0.80666
-0.0100707500000000;-54.8605;-0.80566
-0.0100582500000000;-54.8451;-0.80466
-0.0100457500000000;-54.8296;-0.80366
-0.0100332500000000;-54.8142;-0.80266
-0.0100207500000000;-54.7988;-0.80166
-0.0100082500000000;-54.7833;-0.80066
-0.00999575000000000;-54.7679;-0.79966
-0.00998325000000000;-54.7525;-0.79866
-0.00997075000000000;-54.7371;-0.79766
-0.00995825000000000;-54.7216;-0.79666
-0.00994575000000000;-54.7062;-0.79566
-0.00993325000000000;-54.6908;-0.79466
-0.00992075000000000;-54.6753;-0.79366
-0.00990825000000000;-54.6599;-0.79266
-0.00989575000000000;-54.6445;-0.79166
-0.00988325000000000;-54.629;-0.79066
-0.00987075000000000;-54.6136;-0.78966
-0.00985825000000000;-54.5982;-0.78866
-0.00984575000000000;-54.5827;-0.78766
-0.00983325000000000;-54.5673;-0.78666
-0.00982075000000000;-54.5519;-0.78566
-0.00980825000000000;-54.5364;-0.78466
-0.00979575000000000;-54.521;-0.78366
-0.00978325000000000;-54.5056;-0.78266
-0.00977075000000000;-54.4902;-0.78166
-0.00975825000000000;-54.4747;-0.78066
-0.00974575000000000;-54.4593;-0.77966
-0.00973325000000000;-54.4439;-0.77866
-0.00972075000000000;-54.4284;-0.77766
-0.00970825000000000;-54.413;-0.77666
-0.00969575000000000;-54.3976;-0.77566
-0.00968325000000000;-54.3821;-0.77466
-0.00967075000000000;-54.3667;-0.77366
-0.00965825000000000;-54.3513;-0.77266
-0.00964575000000000;-54.3358;-0.77166
-0.00963325000000000;-54.3204;-0.77066
-0.00962075000000000;-54.305;-0.76966
-0.00960825000000000;-54.2895;-0.76866
-0.00959575000000000;-54.2741;-0.76766
-0.00958325000000000;-54.2587;-0.76666
-0.00957075000000000;-54.2433;-0.76566
-0.00955825000000000;-54.2278;-0.76466
-0.00954575000000000;-54.2124;-0.76366
-0.00953325000000000;-54.197;-0.76266
-0.00952075000000000;-54.1815;-0.76166
-0.00950825000000000;-54.1661;-0.76066
-0.00949575000000000;-54.1507;-0.75966
-0.00948325000000000;-54.1352;-0.75866
-0.00947075000000000;-54.1198;-0.75766
-0.00945825000000000;-54.1044;-0.75666
-0.00944575000000000;-54.0889;-0.75566
-0.00943325000000000;-54.0735;-0.75466
-0.00942075000000000;-54.0581;-0.75366
-0.00940825000000000;-54.0426;-0.75266
-0.00939575000000000;-54.0272;-0.75166
-0.00938325000000000;-54.0118;-0.75066
-0.00937075000000000;-53.9964;-0.74966
-0.00935825000000000;-53.9809;-0.74866
-0.00934575000000000;-53.9655;-0.74766
-0.00933325000000000;-53.9501;-0.74666
-0.00932075000000000;-53.9346;-0.74566
-0.00930825000000000;-53.9087;-0.74466
-0.00929575000000000;-53.8778;-0.74366
-0.00928325000000000;-53.847;-0.74266
-0.00927075000000000;-53.8161;-0.74166
-0.00925825000000000;-53.7852;-0.74066
-0.00924575000000000;-53.7544;-0.73966
-0.00923325000000000;-53.7235;-0.73866
-0.00922075000000000;-53.6926;-0.73766
-0.00920825000000000;-53.6618;-0.73666
-0.00919575000000000;-53.6309;-0.73566
-0.00918325000000000;-53.6;-0.73466
-0.00917075000000000;-53.5692;-0.73366
-0.00915825000000000;-53.5383;-0.73266
-0.00914575000000000;-53.5075;-0.73166
-0.00913325000000000;-53.4766;-0.73066
-0.00912075000000000;-53.4457;-0.72966
-0.00910825000000000;-53.4149;-0.72866
-0.00909575000000000;-53.384;-0.72766
-0.00908325000000000;-53.3531;-0.72666
-0.00907075000000000;-53.3223;-0.72566
-0.00905825000000000;-53.2914;-0.72466
-0.00904575000000000;-53.2606;-0.72366
-0.00903325000000000;-53.2297;-0.72266
-0.00902075000000000;-53.1988;-0.72166
-0.00900825000000000;-53.168;-0.72066
-0.00899575000000000;-53.1371;-0.71966
-0.00898325000000000;-53.1062;-0.71866
-0.00897075000000000;-53.0754;-0.71766
-0.00895825000000000;-53.0445;-0.71666
-0.00894575000000000;-53.0137;-0.71566
-0.00893325000000000;-52.9828;-0.71466
-0.00892075000000000;-52.9519;-0.71366
-0.00890825000000000;-52.9211;-0.71266
-0.00889575000000000;-52.8816;-0.71166
-0.00888325000000000;-52.8353;-0.71066
-0.00887075000000000;-52.7891;-0.70966
-0.00885825000000000;-52.7428;-0.70866
-0.00884575000000000;-52.6965;-0.70766
-0.00883325000000000;-52.6502;-0.70666
-0.00882075000000000;-52.6039;-0.70566
-0.00880825000000000;-52.5576;-0.70466
-0.00879575000000000;-52.5113;-0.70366
-0.00878325000000000;-52.465;-0.70266
-0.00877075000000000;-52.4187;-0.70166
-0.00875825000000000;-52.3724;-0.70066
-0.00874575000000000;-52.3261;-0.69966
-0.00873325000000000;-52.2798;-0.69866
-0.00872075000000000;-52.2335;-0.69766
-0.00870825000000000;-52.1872;-0.69666
-0.00869575000000000;-52.1409;-0.69566
-0.00868325000000000;-52.0946;-0.69466
-0.00867075000000000;-52.0483;-0.69366
-0.00865825000000000;-52.0021;-0.69266
-0.00864575000000000;-51.9558;-0.69166
-0.00863325000000000;-51.9095;-0.69066
-0.00862075000000000;-51.8632;-0.68966
-0.00860825000000000;-51.8169;-0.68866
-0.00859575000000000;-51.7706;-0.68766
-0.00858325000000000;-51.7243;-0.68666
-0.00857075000000000;-51.678;-0.68566
-0.00855825000000000;-51.6317;-0.68466
-0.00854575000000000;-51.5854;-0.68366
-0.00853325000000000;-51.5391;-0.68266
-0.00852075000000000;-51.4928;-0.68166
-0.00850825000000000;-51.4465;-0.68066
-0.00849575000000000;-51.4002;-0.67966
-0.00848325000000000;-51.3606;-0.67866
-0.00847075000000000;-51.3297;-0.67766
-0.00845825000000000;-51.2988;-0.67666
-0.00844575000000000;-51.268;-0.67566
-0.00843325000000000;-51.2371;-0.67466
-0.00842075000000000;-51.2062;-0.67366
-0.00840825000000000;-51.1754;-0.67266
-0.00839575000000000;-51.1445;-0.67166
-0.00838325000000000;-51.1137;-0.67066
-0.00837075000000000;-51.0828;-0.66966
-0.00835825000000000;-51.0519;-0.66866
-0.00834575000000000;-51.0211;-0.66766
-0.00833325000000000;-50.9902;-0.66666
-0.00832075000000000;-50.9593;-0.66566
-0.00830825000000000;-50.9285;-0.66466
-0.00829575000000000;-50.8976;-0.66366
-0.00828325000000000;-50.8668;-0.66266
-0.00827075000000000;-50.8359;-0.66166
-0.00825825000000000;-50.805;-0.66066
-0.00824575000000000;-50.7742;-0.65966
-0.00823325000000000;-50.7433;-0.65866
-0.00822075000000000;-50.7124;-0.65766
-0.00820825000000000;-50.6816;-0.65666
-0.00819575000000000;-50.6507;-0.65566
-0.00818325000000000;-50.6199;-0.65466
-0.00817075000000000;-50.589;-0.65366
-0.00815825000000000;-50.5581;-0.65266
-0.00814575000000000;-50.5273;-0.65166
-0.00813325000000000;-50.4964;-0.65066
-0.00812075000000000;-50.4655;-0.64966
-0.00810825000000000;-50.4347;-0.64866
-0.00809575000000000;-50.4038;-0.64766
-0.00808325000000000;-50.373;-0.64666
-0.00807075000000000;-50.3328;-0.64566
-0.00805825000000000;-50.271;-0.64466
-0.00804575000000000;-50.2093;-0.64366
-0.00803325000000000;-50.1476;-0.64266
-0.00802075000000000;-50.0859;-0.64166
-0.00800825000000000;-50.0241;-0.64066
-0.00799575000000000;-49.9624;-0.63966
-0.00798325000000000;-49.9007;-0.63866
-0.00797075000000000;-49.8389;-0.63766
-0.00795825000000000;-49.7772;-0.63666
-0.00794575000000000;-49.7155;-0.63566
-0.00793325000000000;-49.6538;-0.63466
-0.00792075000000000;-49.592;-0.63366
-0.00790825000000000;-49.5303;-0.63266
-0.00789575000000000;-49.4686;-0.63166
-0.00788325000000000;-49.4069;-0.63066
-0.00787075000000000;-49.3451;-0.62966
-0.00785825000000000;-49.2834;-0.62866
-0.00784575000000000;-49.2217;-0.62766
-0.00783325000000000;-49.16;-0.62666
-0.00782075000000000;-49.0982;-0.62566
-0.00780825000000000;-49.0365;-0.62466
-0.00779575000000000;-48.9748;-0.62366
-0.00778325000000000;-48.9131;-0.62266
-0.00777075000000000;-48.8513;-0.62166
-0.00775825000000000;-48.7896;-0.62066
-0.00774575000000000;-48.7279;-0.61966
-0.00773325000000000;-48.6662;-0.61866
-0.00772075000000000;-48.6044;-0.61766
-0.00770825000000000;-48.5427;-0.61666
-0.00769575000000000;-48.481;-0.61566
-0.00768325000000000;-48.4193;-0.61466
-0.00767075000000000;-48.3575;-0.61366
-0.00765825000000000;-48.2985;-0.61266
-0.00764575000000000;-48.2522;-0.61166
-0.00763325000000000;-48.206;-0.61066
-0.00762075000000000;-48.1597;-0.60966
-0.00760825000000000;-48.1134;-0.60866
-0.00759575000000000;-48.0671;-0.60766
-0.00758325000000000;-48.0208;-0.60666
-0.00757075000000000;-47.9745;-0.60566
-0.00755825000000000;-47.9282;-0.60466
-0.00754575000000000;-47.8819;-0.60366
-0.00753325000000000;-47.8356;-0.60266
-0.00752075000000000;-47.7893;-0.60166
-0.00750825000000000;-47.743;-0.60066
-0.00749575000000000;-47.6967;-0.59966
-0.00748325000000000;-47.6504;-0.59866
-0.00747075000000000;-47.6041;-0.59766
-0.00745825000000000;-47.5578;-0.59666
-0.00744575000000000;-47.5115;-0.59566
-0.00743325000000000;-47.4653;-0.59466
-0.00742075000000000;-47.419;-0.59366
-0.00740825000000000;-47.3727;-0.59266
-0.00739575000000000;-47.3264;-0.59166
-0.00738325000000000;-47.2801;-0.59066
-0.00737075000000000;-47.2338;-0.58966
-0.00735825000000000;-47.1875;-0.58866
-0.00734575000000000;-47.1412;-0.58766
-0.00733325000000000;-47.0949;-0.58666
-0.00732075000000000;-47.0486;-0.58566
-0.00730825000000000;-47.0023;-0.58466
-0.00729575000000000;-46.956;-0.58366
-0.00728325000000000;-46.9097;-0.58266
-0.00727075000000000;-46.8634;-0.58166
-0.00725825000000000;-46.8171;-0.58066
-0.00724575000000000;-46.7716;-0.57966
-0.00723325000000000;-46.7408;-0.57866
-0.00722075000000000;-46.7099;-0.57766
-0.00720825000000000;-46.679;-0.57666
-0.00719575000000000;-46.6482;-0.57566
-0.00718325000000000;-46.6173;-0.57466
-0.00717075000000000;-46.5864;-0.57366
-0.00715825000000000;-46.5556;-0.57266
-0.00714575000000000;-46.5247;-0.57166
-0.00713325000000000;-46.4939;-0.57066
-0.00712075000000000;-46.463;-0.56966
-0.00710825000000000;-46.4321;-0.56866
-0.00709575000000000;-46.4013;-0.56766
-0.00708325000000000;-46.3704;-0.56666
-0.00707075000000000;-46.3395;-0.56566
-0.00705825000000000;-46.3087;-0.56466
-0.00704575000000000;-46.2778;-0.56366
-0.00703325000000000;-46.247;-0.56266
-0.00702075000000000;-46.2161;-0.56166
-0.00700825000000000;-46.1852;-0.56066
-0.00699575000000000;-46.1544;-0.55966
-0.00698325000000000;-46.1235;-0.55866
-0.00697075000000000;-46.0926;-0.55766
-0.00695825000000000;-46.0618;-0.55666
-0.00694575000000000;-46.0309;-0.55566
-0.00693325000000000;-46;-0.55466
-0.00692075000000000;-45.9692;-0.55366
-0.00690825000000000;-45.9383;-0.55266
-0.00689575000000000;-45.9075;-0.55166
-0.00688325000000000;-45.8766;-0.55066
-0.00687075000000000;-45.8457;-0.54966
-0.00685825000000000;-45.8149;-0.54866
-0.00684575000000000;-45.784;-0.54766
-0.00683325000000000;-45.7531;-0.54666
-0.00682075000000000;-45.7365;-0.54566
-0.00680825000000000;-45.7211;-0.54466
-0.00679575000000000;-45.7057;-0.54366
-0.00678325000000000;-45.6902;-0.54266
-0.00677075000000000;-45.6748;-0.54166
-0.00675825000000000;-45.6594;-0.54066
-0.00674575000000000;-45.644;-0.53966
-0.00673325000000000;-45.6285;-0.53866
-0.00672075000000000;-45.6131;-0.53766
-0.00670825000000000;-45.5977;-0.53666
-0.00669575000000000;-45.5822;-0.53566
-0.00668325000000000;-45.5668;-0.53466
-0.00667075000000000;-45.5514;-0.53366
-0.00665825000000000;-45.5359;-0.53266
-0.00664575000000000;-45.5205;-0.53166
-0.00663325000000000;-45.5051;-0.53066
-0.00662075000000000;-45.4896;-0.52966
-0.00660825000000000;-45.4742;-0.52866
-0.00659575000000000;-45.4588;-0.52766
-0.00658325000000000;-45.4433;-0.52666
-0.00657075000000000;-45.4279;-0.52566
-0.00655825000000000;-45.4125;-0.52466
-0.00654575000000000;-45.3971;-0.52366
-0.00653325000000000;-45.3816;-0.52266
-0.00652075000000000;-45.3662;-0.52166
-0.00650825000000000;-45.3508;-0.52066
-0.00649575000000000;-45.3353;-0.51966
-0.00648325000000000;-45.3199;-0.51866
-0.00647075000000000;-45.3045;-0.51766
-0.00645825000000000;-45.289;-0.51666
-0.00644575000000000;-45.2736;-0.51566
-0.00643325000000000;-45.2582;-0.51466
-0.00642075000000000;-45.2427;-0.51366
-0.00640825000000000;-45.2396;-0.51266
-0.00639575000000000;-45.2396;-0.51166
-0.00638325000000000;-45.2396;-0.51066
-0.00637075000000000;-45.2396;-0.50966
-0.00635825000000000;-45.2396;-0.50866
-0.00634575000000000;-45.2396;-0.50766
-0.00633325000000000;-45.2396;-0.50666
-0.00632075000000000;-45.2396;-0.50566
-0.00630825000000000;-45.2396;-0.50466
-0.00629575000000000;-45.2396;-0.50366
-0.00628325000000000;-45.2396;-0.50266
-0.00627075000000000;-45.2396;-0.50166
-0.00625825000000000;-45.2396;-0.50066
-0.00624575000000000;-45.2396;-0.49966
-0.00623325000000000;-45.2396;-0.49866
-0.00622075000000000;-45.2396;-0.49766
-0.00620825000000000;-45.2396;-0.49666
-0.00619575000000000;-45.2396;-0.49566
-0.00618325000000000;-45.2396;-0.49466
-0.00617075000000000;-45.2396;-0.49366
-0.00615825000000000;-45.2396;-0.49266
-0.00614575000000000;-45.2396;-0.49166
-0.00613325000000000;-45.2396;-0.49066
-0.00612075000000000;-45.2396;-0.48966
-0.00610825000000000;-45.2396;-0.48866
-0.00609575000000000;-45.2396;-0.48766
-0.00608325000000000;-45.2396;-0.48666
-0.00607075000000000;-45.2396;-0.48566
-0.00605825000000000;-45.2396;-0.48466
-0.00604575000000000;-45.2396;-0.48366
-0.00603325000000000;-45.2396;-0.48266
-0.00602075000000000;-45.2396;-0.48166
-0.00600825000000000;-45.2396;-0.48066
-0.00599575000000000;-45.2189;-0.47966
-0.00598325000000000;-45.188;-0.47866
-0.00597075000000000;-45.1572;-0.47766
-0.00595825000000000;-45.1263;-0.47666
-0.00594575000000000;-45.0954;-0.47566
-0.00593325000000000;-45.0646;-0.47466
-0.00592075000000000;-45.0337;-0.47366
-0.00590825000000000;-45.0029;-0.47266
-0.00589575000000000;-44.972;-0.47166
-0.00588325000000000;-44.9411;-0.47066
-0.00587075000000000;-44.9103;-0.46966
-0.00585825000000000;-44.8794;-0.46866
-0.00584575000000000;-44.8485;-0.46766
-0.00583325000000000;-44.8177;-0.46666
-0.00582075000000000;-44.7868;-0.46566
-0.00580825000000000;-44.756;-0.46466
-0.00579575000000000;-44.7251;-0.46366
-0.00578325000000000;-44.6942;-0.46266
-0.00577075000000000;-44.6634;-0.46166
-0.00575825000000000;-44.6325;-0.46066
-0.00574575000000000;-44.6016;-0.45966
-0.00573325000000000;-44.5708;-0.45866
-0.00572075000000000;-44.5399;-0.45766
-0.00570825000000000;-44.5091;-0.45666
-0.00569575000000000;-44.4782;-0.45566
-0.00568325000000000;-44.4473;-0.45466
-0.00567075000000000;-44.4165;-0.45366
-0.00565825000000000;-44.3856;-0.45266
-0.00564575000000000;-44.3547;-0.45166
-0.00563325000000000;-44.3239;-0.45066
-0.00562075000000000;-44.293;-0.44966
-0.00560825000000000;-44.2622;-0.44866
-0.00559575000000000;-44.2313;-0.44766
-0.00558325000000000;-44.1836;-0.44666
-0.00557075000000000;-44.1219;-0.44566
-0.00555825000000000;-44.0602;-0.44466
-0.00554575000000000;-43.9984;-0.44366
-0.00553325000000000;-43.9367;-0.44266
-0.00552075000000000;-43.875;-0.44166
-0.00550825000000000;-43.8133;-0.44066
-0.00549575000000000;-43.7515;-0.43966
-0.00548325000000000;-43.6898;-0.43866
-0.00547075000000000;-43.6281;-0.43766
-0.00545825000000000;-43.5664;-0.43666
-0.00544575000000000;-43.5046;-0.43566
-0.00543325000000000;-43.4429;-0.43466
-0.00542075000000000;-43.3812;-0.43366
-0.00540825000000000;-43.3195;-0.43266
-0.00539575000000000;-43.2577;-0.43166
-0.00538325000000000;-43.196;-0.43066
-0.00537075000000000;-43.1343;-0.42966
-0.00535825000000000;-43.0726;-0.42866
-0.00534575000000000;-43.0108;-0.42766
-0.00533325000000000;-42.9491;-0.42666
-0.00532075000000000;-42.8874;-0.42566
-0.00530825000000000;-42.8257;-0.42466
-0.00529575000000000;-42.7639;-0.42366
-0.00528325000000000;-42.7022;-0.42266
-0.00527075000000000;-42.6405;-0.42166
-0.00525825000000000;-42.5788;-0.42066
-0.00524575000000000;-42.517;-0.41966
-0.00523325000000000;-42.4553;-0.41866
-0.00522075000000000;-42.3936;-0.41766
-0.00520825000000000;-42.3319;-0.41666
-0.00519575000000000;-42.2701;-0.41566
-0.00518325000000000;-42.2084;-0.41466
-0.00517075000000000;-42.1467;-0.41366
-0.00515825000000000;-42.085;-0.41266
-0.00514575000000000;-42.0232;-0.41166
-0.00513325000000000;-41.9615;-0.41066
-0.00512075000000000;-41.8998;-0.40966
-0.00510825000000000;-41.8381;-0.40866
-0.00509575000000000;-41.7763;-0.40766
-0.00508325000000000;-41.7146;-0.40666
-0.00507075000000000;-41.6529;-0.40566
-0.00505825000000000;-41.5912;-0.40466
-0.00504575000000000;-41.5294;-0.40366
-0.00503325000000000;-41.4677;-0.40266
-0.00502075000000000;-41.406;-0.40166
-0.00500825000000000;-41.3443;-0.40066
-0.00499575000000000;-41.2825;-0.39966
-0.00498325000000000;-41.2208;-0.39866
-0.00497075000000000;-41.1591;-0.39766
-0.00495825000000000;-41.0974;-0.39666
-0.00494575000000000;-41.0356;-0.39566
-0.00493325000000000;-40.9739;-0.39466
-0.00492075000000000;-40.9122;-0.39366
-0.00490825000000000;-40.8505;-0.39266
-0.00489575000000000;-40.7887;-0.39166
-0.00488325000000000;-40.727;-0.39066
-0.00487075000000000;-40.6653;-0.38966
-0.00485825000000000;-40.6036;-0.38866
-0.00484575000000000;-40.5418;-0.38766
-0.00483325000000000;-40.4801;-0.38666
-0.00482075000000000;-40.4184;-0.38566
-0.00480825000000000;-40.3566;-0.38466
-0.00479575000000000;-40.2949;-0.38366
-0.00478325000000000;-40.2332;-0.38266
-0.00477075000000000;-40.1715;-0.38166
-0.00475825000000000;-40.1052;-0.38066
-0.00474575000000000;-40.0281;-0.37966
-0.00473325000000000;-39.9509;-0.37866
-0.00472075000000000;-39.8738;-0.37766
-0.00470825000000000;-39.7966;-0.37666
-0.00469575000000000;-39.7195;-0.37566
-0.00468325000000000;-39.6423;-0.37466
-0.00467075000000000;-39.5651;-0.37366
-0.00465825000000000;-39.488;-0.37266
-0.00464575000000000;-39.4108;-0.37166
-0.00463325000000000;-39.3337;-0.37066
-0.00462075000000000;-39.2565;-0.36966
-0.00460825000000000;-39.1794;-0.36866
-0.00459575000000000;-39.1022;-0.36766
-0.00458325000000000;-39.025;-0.36666
-0.00457075000000000;-38.9479;-0.36566
-0.00455825000000000;-38.8707;-0.36466
-0.00454575000000000;-38.7936;-0.36366
-0.00453325000000000;-38.7164;-0.36266
-0.00452075000000000;-38.6393;-0.36166
-0.00450825000000000;-38.5621;-0.36066
-0.00449575000000000;-38.4849;-0.35966
-0.00448325000000000;-38.4078;-0.35866
-0.00447075000000000;-38.3306;-0.35766
-0.00445825000000000;-38.2535;-0.35666
-0.00444575000000000;-38.1763;-0.35566
-0.00443325000000000;-38.0992;-0.35466
-0.00442075000000000;-38.022;-0.35366
-0.00440825000000000;-37.9449;-0.35266
-0.00439575000000000;-37.8677;-0.35166
-0.00438325000000000;-37.7905;-0.35066
-0.00437075000000000;-37.7134;-0.34966
-0.00435825000000000;-37.6362;-0.34866
-0.00434575000000000;-37.5591;-0.34766
-0.00433325000000000;-37.4819;-0.34666
-0.00432075000000000;-37.4048;-0.34566
-0.00430825000000000;-37.3276;-0.34466
-0.00429575000000000;-37.2504;-0.34366
-0.00428325000000000;-37.1733;-0.34266
-0.00427075000000000;-37.0961;-0.34166
-0.00425825000000000;-37.019;-0.34066
-0.00424575000000000;-36.9418;-0.33966
-0.00423325000000000;-36.8647;-0.33866
-0.00422075000000000;-36.7875;-0.33766
-0.00420825000000000;-36.7103;-0.33666
-0.00419575000000000;-36.6332;-0.33566
-0.00418325000000000;-36.556;-0.33466
-0.00417075000000000;-36.4789;-0.33366
-0.00415825000000000;-36.4017;-0.33266
-0.00414575000000000;-36.3246;-0.33166
-0.00413325000000000;-36.2474;-0.33066
-0.00412075000000000;-36.1703;-0.32966
-0.00410825000000000;-36.0931;-0.32866
-0.00409575000000000;-36.0159;-0.32766
-0.00408325000000000;-35.9388;-0.32666
-0.00407075000000000;-35.8616;-0.32566
-0.00405825000000000;-35.7845;-0.32466
-0.00404575000000000;-35.7073;-0.32366
-0.00403325000000000;-35.6302;-0.32266
-0.00402075000000000;-35.553;-0.32166
-0.00400825000000000;-35.4758;-0.32066
-0.00399575000000000;-35.3987;-0.31966
-0.00398325000000000;-35.3215;-0.31866
-0.00397075000000000;-35.2444;-0.31766
-0.00395825000000000;-35.1672;-0.31666
-0.00394575000000000;-35.0901;-0.31566
-0.00393325000000000;-35.0135;-0.31466
-0.00392075000000000;-34.9518;-0.31366
-0.00390825000000000;-34.8901;-0.31266
-0.00389575000000000;-34.8283;-0.31166
-0.00388325000000000;-34.7666;-0.31066
-0.00387075000000000;-34.7049;-0.30966
-0.00385825000000000;-34.6432;-0.30866
-0.00384575000000000;-34.5814;-0.30766
-0.00383325000000000;-34.5197;-0.30666
-0.00382075000000000;-34.458;-0.30566
-0.00380825000000000;-34.3963;-0.30466
-0.00379575000000000;-34.3345;-0.30366
-0.00378325000000000;-34.2728;-0.30266
-0.00377075000000000;-34.2111;-0.30166
-0.00375825000000000;-34.1494;-0.30066
-0.00374575000000000;-34.0876;-0.29966
-0.00373325000000000;-34.0259;-0.29866
-0.00372075000000000;-33.9642;-0.29766
-0.00370825000000000;-33.9025;-0.29666
-0.00369575000000000;-33.8407;-0.29566
-0.00368325000000000;-33.779;-0.29466
-0.00367075000000000;-33.7173;-0.29366
-0.00365825000000000;-33.6556;-0.29266
-0.00364575000000000;-33.5938;-0.29166
-0.00363325000000000;-33.5321;-0.29066
-0.00362075000000000;-33.4704;-0.28966
-0.00360825000000000;-33.4087;-0.28866
-0.00359575000000000;-33.3469;-0.28766
-0.00358325000000000;-33.2852;-0.28666
-0.00357075000000000;-33.2235;-0.28566
-0.00355825000000000;-33.1618;-0.28466
-0.00354575000000000;-33.1;-0.28366
-0.00353325000000000;-33.0383;-0.28266
-0.00352075000000000;-32.9766;-0.28166
-0.00350825000000000;-32.8867;-0.28066
-0.00349575000000000;-32.7941;-0.27966
-0.00348325000000000;-32.7015;-0.27866
-0.00347075000000000;-32.6089;-0.27766
-0.00345825000000000;-32.5163;-0.27666
-0.00344575000000000;-32.4237;-0.27566
-0.00343325000000000;-32.3311;-0.27466
-0.00342075000000000;-32.2386;-0.27366
-0.00340825000000000;-32.146;-0.27266
-0.00339575000000000;-32.0534;-0.27166
-0.00338325000000000;-31.9608;-0.27066
-0.00337075000000000;-31.8682;-0.26966
-0.00335825000000000;-31.7756;-0.26866
-0.00334575000000000;-31.683;-0.26766
-0.00333325000000000;-31.5904;-0.26666
-0.00332075000000000;-31.4978;-0.26566
-0.00330825000000000;-31.4053;-0.26466
-0.00329575000000000;-31.3127;-0.26366
-0.00328325000000000;-31.2201;-0.26266
-0.00327075000000000;-31.1275;-0.26166
-0.00325825000000000;-31.0349;-0.26066
-0.00324575000000000;-30.9423;-0.25966
-0.00323325000000000;-30.8497;-0.25866
-0.00322075000000000;-30.7571;-0.25766
-0.00320825000000000;-30.6646;-0.25666
-0.00319575000000000;-30.572;-0.25566
-0.00318325000000000;-30.4794;-0.25466
-0.00317075000000000;-30.3868;-0.25366
-0.00315825000000000;-30.2942;-0.25266
-0.00314575000000000;-30.2016;-0.25166
-0.00313325000000000;-30.109;-0.25066
-0.00312075000000000;-30.0164;-0.24966
-0.00310825000000000;-29.9239;-0.24866
-0.00309575000000000;-29.8313;-0.24766
-0.00308325000000000;-29.7387;-0.24666
-0.00307075000000000;-29.6461;-0.24566
-0.00305825000000000;-29.5535;-0.24466
-0.00304575000000000;-29.4609;-0.24366
-0.00303325000000000;-29.3683;-0.24266
-0.00302075000000000;-29.2757;-0.24166
-0.00300825000000000;-29.1832;-0.24066
-0.00299575000000000;-29.0906;-0.23966
-0.00298325000000000;-28.998;-0.23866
-0.00297075000000000;-28.9054;-0.23766
-0.00295825000000000;-28.8128;-0.23666
-0.00294575000000000;-28.7202;-0.23566
-0.00293325000000000;-28.6276;-0.23466
-0.00292075000000000;-28.535;-0.23366
-0.00290825000000000;-28.4424;-0.23266
-0.00289575000000000;-28.3499;-0.23166
-0.00288325000000000;-28.2573;-0.23066
-0.00287075000000000;-28.1647;-0.22966
-0.00285825000000000;-28.0721;-0.22866
-0.00284575000000000;-27.9795;-0.22766
-0.00283325000000000;-27.8869;-0.22666
-0.00282075000000000;-27.7943;-0.22566
-0.00280825000000000;-27.7017;-0.22466
-0.00279575000000000;-27.6092;-0.22366
-0.00278325000000000;-27.5166;-0.22266
-0.00277075000000000;-27.424;-0.22166
-0.00275825000000000;-27.3314;-0.22066
-0.00274575000000000;-27.2388;-0.21966
-0.00273325000000000;-27.1462;-0.21866
-0.00272075000000000;-27.0536;-0.21766
-0.00270825000000000;-26.961;-0.21666
-0.00269575000000000;-26.8685;-0.21566
-0.00268325000000000;-26.7759;-0.21466
-0.00267075000000000;-26.6833;-0.21366
-0.00265825000000000;-26.5907;-0.21266
-0.00264575000000000;-26.4981;-0.21166
-0.00263325000000000;-26.4055;-0.21066
-0.00262075000000000;-26.3129;-0.20966
-0.00260825000000000;-26.2203;-0.20866
-0.00259575000000000;-26.1278;-0.20766
-0.00258325000000000;-26.0352;-0.20666
-0.00257075000000000;-25.9426;-0.20566
-0.00255825000000000;-25.85;-0.20466
-0.00254575000000000;-25.7574;-0.20366
-0.00253325000000000;-25.6648;-0.20266
-0.00252075000000000;-25.5722;-0.20166
-0.00250825000000000;-25.4796;-0.20066
-0.00249575000000000;-25.3871;-0.19966
-0.00248325000000000;-25.2945;-0.19866
-0.00247075000000000;-25.2019;-0.19766
-0.00245825000000000;-25.1093;-0.19666
-0.00244575000000000;-25.0167;-0.19566
-0.00243325000000000;-24.9241;-0.19466
-0.00242075000000000;-24.8315;-0.19366
-0.00240825000000000;-24.7389;-0.19266
-0.00239575000000000;-24.6463;-0.19166
-0.00238325000000000;-24.5538;-0.19066
-0.00237075000000000;-24.4612;-0.18966
-0.00235825000000000;-24.3686;-0.18866
-0.00234575000000000;-24.276;-0.18766
-0.00233325000000000;-24.1834;-0.18666
-0.00232075000000000;-24.0908;-0.18566
-0.00230825000000000;-23.9982;-0.18466
-0.00229575000000000;-23.9056;-0.18366
-0.00228325000000000;-23.8131;-0.18266
-0.00227075000000000;-23.704;-0.18166
-0.00225825000000000;-23.5805;-0.18066
-0.00224575000000000;-23.4571;-0.17966
-0.00223325000000000;-23.3336;-0.17866
-0.00222075000000000;-23.2102;-0.17766
-0.00220825000000000;-23.0867;-0.17666
-0.00219575000000000;-22.9633;-0.17566
-0.00218325000000000;-22.8398;-0.17466
-0.00217075000000000;-22.7164;-0.17366
-0.00215825000000000;-22.5929;-0.17266
-0.00214575000000000;-22.4695;-0.17166
-0.00213325000000000;-22.346;-0.17066
-0.00212075000000000;-22.2226;-0.16966
-0.00210825000000000;-22.0991;-0.16866
-0.00209575000000000;-21.9757;-0.16766
-0.00208325000000000;-21.8522;-0.16666
-0.00207075000000000;-21.7288;-0.16566
-0.00205825000000000;-21.6053;-0.16466
-0.00204575000000000;-21.4819;-0.16366
-0.00203325000000000;-21.3584;-0.16266
-0.00202075000000000;-21.235;-0.16166
-0.00200825000000000;-21.1115;-0.16066
-0.00199575000000000;-20.9881;-0.15966
-0.00198325000000000;-20.8646;-0.15866
-0.00197075000000000;-20.7412;-0.15766
-0.00195825000000000;-20.6177;-0.15666
-0.00194575000000000;-20.4943;-0.15566
-0.00193325000000000;-20.3708;-0.15466
-0.00192075000000000;-20.2474;-0.15366
-0.00190825000000000;-20.1239;-0.15266
-0.00189575000000000;-20.0005;-0.15166
-0.00188325000000000;-19.877;-0.15066
-0.00187075000000000;-19.7536;-0.14966
-0.00185825000000000;-19.6175;-0.14866
-0.00184575000000000;-19.4632;-0.14766
-0.00183325000000000;-19.3089;-0.14666
-0.00182075000000000;-19.1546;-0.14566
-0.00180825000000000;-19.0002;-0.14466
-0.00179575000000000;-18.8459;-0.14366
-0.00178325000000000;-18.6916;-0.14266
-0.00177075000000000;-18.5373;-0.14166
-0.00175825000000000;-18.383;-0.14066
-0.00174575000000000;-18.2287;-0.13966
-0.00173325000000000;-18.0744;-0.13866
-0.00172075000000000;-17.9201;-0.13766
-0.00170825000000000;-17.7657;-0.13666
-0.00169575000000000;-17.6114;-0.13566
-0.00168325000000000;-17.4571;-0.13466
-0.00167075000000000;-17.3028;-0.13366
-0.00165825000000000;-17.1485;-0.13266
-0.00164575000000000;-16.9942;-0.13166
-0.00163325000000000;-16.8399;-0.13066
-0.00162075000000000;-16.6856;-0.12966
-0.00160825000000000;-16.5312;-0.12866
-0.00159575000000000;-16.3769;-0.12766
-0.00158325000000000;-16.2226;-0.12666
-0.00157075000000000;-16.0683;-0.12566
-0.00155825000000000;-15.914;-0.12466
-0.00154575000000000;-15.7597;-0.12366
-0.00153325000000000;-15.6054;-0.12266
-0.00152075000000000;-15.451;-0.12166
-0.00150825000000000;-15.2967;-0.12066
-0.00149575000000000;-15.1424;-0.11966
-0.00148325000000000;-14.9881;-0.11866
-0.00147075000000000;-14.8338;-0.11766
-0.00145825000000000;-14.6795;-0.11666
-0.00144575000000000;-14.2858;-0.11566
-0.00143325000000000;-13.2828;-0.11466
-0.00142075000000000;-12.2797;-0.11366
-0.00140825000000000;-11.2767;-0.11266
-0.00139575000000000;-10.2737;-0.11166
-0.00138325000000000;-9.27063;-0.11066
-0.00137075000000000;-8.26759;-0.10966
-0.00135825000000000;-7.26456;-0.10866
-0.00134575000000000;-6.26152;-0.10766
-0.00133325000000000;-5.25849;-0.10666
-0.00132075000000000;-4.25545;-0.10566
-0.00130825000000000;-3.25242;-0.10466
-0.00129575000000000;-2.24938;-0.10366
-0.00128325000000000;-1.24635;-0.10266
-0.00127075000000000;-0.243313;-0.10166
-0.00125825000000000;0.759722;-0.10066
-0.00124575000000000;1.76276;-0.09966
-0.00123325000000000;2.76579;-0.09866
-0.00122075000000000;3.76883;-0.09766
-0.00120825000000000;4.77186;-0.09666
-0.00119575000000000;5.7749;-0.09566
-0.00118325000000000;6.77793;-0.09466
-0.00117075000000000;7.78097;-0.09366
-0.00115825000000000;8.784;-0.09266
-0.00114575000000000;9.78704;-0.09166
-0.00113325000000000;10.7901;-0.09066
-0.00112075000000000;11.7931;-0.08966
-0.00110825000000000;12.7961;-0.08866
-0.00109575000000000;13.7992;-0.08766
-0.00108325000000000;14.8022;-0.08666
-0.00107075000000000;15.8052;-0.08566
-0.00105825000000000;16.8083;-0.08466
-0.00104575000000000;17.8113;-0.08366
-0.00103325000000000;18.7014;-0.08266
-0.00102075000000000;18.9792;-0.08166
-0.00100825000000000;19.2569;-0.08066
-0.000995750000000000;19.5347;-0.07966
-0.000983250000000000;19.8125;-0.07866
-0.000970750000000000;20.0902;-0.07766
-0.000958250000000000;20.368;-0.07666
-0.000945750000000000;20.6457;-0.07566
-0.000933250000000000;20.9235;-0.07466
-0.000920750000000000;21.2013;-0.07366
-0.000908250000000000;21.479;-0.07266
-0.000895750000000000;21.7568;-0.07166
-0.000883250000000000;22.0346;-0.07066
-0.000870750000000000;22.3123;-0.06966
-0.000858250000000000;22.5901;-0.06866
-0.000845750000000000;22.8679;-0.06766
-0.000833250000000000;23.1456;-0.06666
-0.000820750000000000;23.4234;-0.06566
-0.000808250000000000;23.7011;-0.06466
-0.000795750000000000;23.9789;-0.06366
-0.000783250000000000;24.2567;-0.06266
-0.000770750000000000;24.5344;-0.06166
-0.000758250000000000;24.8122;-0.06066
-0.000745750000000000;25.09;-0.05966
-0.000733250000000000;25.3677;-0.05866
-0.000720750000000000;25.6455;-0.05766
-0.000708250000000000;25.9233;-0.05666
-0.000695750000000000;26.201;-0.05566
-0.000683250000000000;26.4788;-0.05466
-0.000670750000000000;26.7565;-0.05366
-0.000658250000000000;27.0343;-0.05266
-0.000645750000000000;27.3121;-0.05166
-0.000633250000000000;27.5898;-0.05066
-0.000620750000000000;27.8635;-0.04966
-0.000608250000000000;28.0024;-0.04866
-0.000595750000000000;28.1413;-0.04766
-0.000583250000000000;28.2802;-0.04666
-0.000570750000000000;28.419;-0.04566
-0.000558250000000000;28.5579;-0.04466
-0.000545750000000000;28.6968;-0.04366
-0.000533250000000000;28.8357;-0.04266
-0.000520750000000000;28.9746;-0.04166
-0.000508250000000000;29.1134;-0.04066
-0.000495750000000000;29.2523;-0.03966
-0.000483250000000000;29.3912;-0.03866
-0.000470750000000000;29.5301;-0.03766
-0.000458250000000000;29.669;-0.03666
-0.000445750000000000;29.8079;-0.03566
-0.000433250000000000;29.9467;-0.03466
-0.000420750000000000;30.0856;-0.03366
-0.000408250000000000;30.2245;-0.03266
-0.000395750000000000;30.3634;-0.03166
-0.000383250000000000;30.5023;-0.03066
-0.000370750000000000;30.6411;-0.02966
-0.000358250000000000;30.78;-0.02866
-0.000345750000000000;30.9189;-0.02766
-0.000333250000000000;31.0578;-0.02666
-0.000320750000000000;31.1967;-0.02566
-0.000308250000000000;31.3356;-0.02466
-0.000295750000000000;31.4744;-0.02366
-0.000283250000000000;31.6133;-0.02266
-0.000270750000000000;31.7522;-0.02166
-0.000258250000000000;31.8911;-0.02066
-0.000245750000000000;32.03;-0.01966
-0.000233250000000000;32.1688;-0.01866
-0.000220750000000000;32.3077;-0.01766
-0.000208250000000000;32.4466;-0.01666
-0.000195750000000000;32.5576;-0.01566
-0.000183250000000000;32.6656;-0.01466
-0.000170750000000000;32.7737;-0.01366
-0.000158250000000000;32.8817;-0.01266
-0.000145750000000000;32.9897;-0.01166
-0.000133250000000000;33.0977;-0.01066
-0.000120750000000000;33.2057;-0.00966
-0.000108250000000000;33.3138;-0.00866
-9.57500000000000e-05;33.4218;-0.00766
-8.32500000000000e-05;33.5298;-0.00666
-7.07500000000000e-05;33.6378;-0.00566
-5.82500000000000e-05;33.7458;-0.00466
-4.57500000000000e-05;33.8539;-0.00366
-3.32500000000000e-05;33.9619;-0.00266
-2.07500000000000e-05;34.0699;-0.00166
-8.25000000000000e-06;34.1779;-0.00066
4.25000000000000e-06;34.2859;0.00034
1.67500000000000e-05;34.3939;0.00134
2.92500000000000e-05;34.502;0.00234
4.17500000000000e-05;34.61;0.00334
5.42500000000000e-05;34.718;0.00434
6.67500000000000e-05;34.826;0.00534
7.92500000000000e-05;34.934;0.00634
9.17500000000000e-05;35.0421;0.00734
0.000104250000000000;35.1501;0.00834
0.000116750000000000;35.2581;0.00934
0.000129250000000000;35.3661;0.01034
0.000141750000000000;35.4741;0.01134
0.000154250000000000;35.5822;0.01234
0.000166750000000000;35.6902;0.01334
0.000179250000000000;35.7982;0.01434
0.000191750000000000;35.9062;0.01534
0.000204250000000000;36.0142;0.01634
0.000216750000000000;36.0983;0.01734
0.000229250000000000;36.1754;0.01834
0.000241750000000000;36.2526;0.01934
0.000254250000000000;36.3297;0.02034
0.000266750000000000;36.4069;0.02134
0.000279250000000000;36.4841;0.02234
0.000291750000000000;36.5612;0.02334
0.000304250000000000;36.6384;0.02434
0.000316750000000000;36.7155;0.02534
0.000329250000000000;36.7927;0.02634
0.000341750000000000;36.8698;0.02734
0.000354250000000000;36.947;0.02834
0.000366750000000000;37.0242;0.02934
0.000379250000000000;37.1013;0.03034
0.000391750000000000;37.1785;0.03134
0.000404250000000000;37.2556;0.03234
0.000416750000000000;37.3328;0.03334
0.000429250000000000;37.4099;0.03434
0.000441750000000000;37.4871;0.03534
0.000454250000000000;37.5643;0.03634
0.000466750000000000;37.6414;0.03734
0.000479250000000000;37.7186;0.03834
0.000491750000000000;37.7957;0.03934
0.000504250000000000;37.8729;0.04034
0.000516750000000000;37.95;0.04134
0.000529250000000000;38.0272;0.04234
0.000541750000000000;38.1043;0.04334
0.000554250000000000;38.1815;0.04434
0.000566750000000000;38.2587;0.04534
0.000579250000000000;38.3358;0.04634
0.000591750000000000;38.413;0.04734
0.000604250000000000;38.4901;0.04834
0.000616750000000000;38.5673;0.04934
0.000629250000000000;38.6143;0.05034
0.000641750000000000;38.6452;0.05134
0.000654250000000000;38.6761;0.05234
0.000666750000000000;38.7069;0.05334
0.000679250000000000;38.7378;0.05434
0.000691750000000000;38.7686;0.05534
0.000704250000000000;38.7995;0.05634
0.000716750000000000;38.8304;0.05734
0.000729250000000000;38.8612;0.05834
0.000741750000000000;38.8921;0.05934
0.000754250000000000;38.923;0.06034
0.000766750000000000;38.9538;0.06134
0.000779250000000000;38.9847;0.06234
0.000791750000000000;39.0155;0.06334
0.000804250000000000;39.0464;0.06434
0.000816750000000000;39.0773;0.06534
0.000829250000000000;39.1081;0.06634
0.000841750000000000;39.139;0.06734
0.000854250000000000;39.1699;0.06834
0.000866750000000000;39.2007;0.06934
0.000879250000000000;39.2316;0.07034
0.000891750000000000;39.2624;0.07134
0.000904250000000000;39.2933;0.07234
0.000916750000000000;39.3242;0.07334
0.000929250000000000;39.355;0.07434
0.000941750000000000;39.3859;0.07534
0.000954250000000000;39.4168;0.07634
0.000966750000000000;39.4476;0.07734
0.000979250000000000;39.4785;0.07834
0.000991750000000000;39.5093;0.07934
0.00100425000000000;39.5402;0.08034
0.00101675000000000;39.5711;0.08134
0.00102925000000000;39.6019;0.08234
0.00104175000000000;39.6247;0.08334
0.00105425000000000;39.6401;0.08434
0.00106675000000000;39.6556;0.08534
0.00107925000000000;39.671;0.08634
0.00109175000000000;39.6864;0.08734
0.00110425000000000;39.7019;0.08834
0.00111675000000000;39.7173;0.08934
0.00112925000000000;39.7327;0.09034
0.00114175000000000;39.7482;0.09134
0.00115425000000000;39.7636;0.09234
0.00116675000000000;39.779;0.09334
0.00117925000000000;39.7944;0.09434
0.00119175000000000;39.8099;0.09534
0.00120425000000000;39.8253;0.09634
0.00121675000000000;39.8407;0.09734
0.00122925000000000;39.8562;0.09834
0.00124175000000000;39.8716;0.09934
0.00125425000000000;39.887;0.10034
0.00126675000000000;39.9025;0.10134
0.00127925000000000;39.9179;0.10234
0.00129175000000000;39.9333;0.10334
0.00130425000000000;39.9488;0.10434
0.00131675000000000;39.9642;0.10534
0.00132925000000000;39.9796;0.10634
0.00134175000000000;39.9951;0.10734
0.00135425000000000;40.0105;0.10834
0.00136675000000000;40.0259;0.10934
0.00137925000000000;40.0413;0.11034
0.00139175000000000;40.0568;0.11134
0.00140425000000000;40.0722;0.11234
0.00141675000000000;40.0876;0.11334
0.00142925000000000;40.1031;0.11434
0.00144175000000000;40.1185;0.11534
0.00145425000000000;40.1462;0.11634
0.00146675000000000;40.1925;0.11734
0.00147925000000000;40.2388;0.11834
0.00149175000000000;40.2851;0.11934
0.00150425000000000;40.3314;0.12034
0.00151675000000000;40.3777;0.12134
0.00152925000000000;40.424;0.12234
0.00154175000000000;40.4703;0.12334
0.00155425000000000;40.5166;0.12434
0.00156675000000000;40.5629;0.12534
0.00157925000000000;40.6092;0.12634
0.00159175000000000;40.6555;0.12734
0.00160425000000000;40.7017;0.12834
0.00161675000000000;40.748;0.12934
0.00162925000000000;40.7943;0.13034
0.00164175000000000;40.8406;0.13134
0.00165425000000000;40.8869;0.13234
0.00166675000000000;40.9332;0.13334
0.00167925000000000;40.9795;0.13434
0.00169175000000000;41.0258;0.13534
0.00170425000000000;41.0721;0.13634
0.00171675000000000;41.1184;0.13734
0.00172925000000000;41.1647;0.13834
0.00174175000000000;41.211;0.13934
0.00175425000000000;41.2573;0.14034
0.00176675000000000;41.3036;0.14134
0.00177925000000000;41.3499;0.14234
0.00179175000000000;41.3962;0.14334
0.00180425000000000;41.4424;0.14434
0.00181675000000000;41.4887;0.14534
0.00182925000000000;41.535;0.14634
0.00184175000000000;41.5813;0.14734
0.00185425000000000;41.6276;0.14834
0.00186675000000000;41.6697;0.14934
0.00187925000000000;41.7006;0.15034
0.00189175000000000;41.7315;0.15134
0.00190425000000000;41.7623;0.15234
0.00191675000000000;41.7932;0.15334
0.00192925000000000;41.824;0.15434
0.00194175000000000;41.8549;0.15534
0.00195425000000000;41.8858;0.15634
0.00196675000000000;41.9166;0.15734
0.00197925000000000;41.9475;0.15834
0.00199175000000000;41.9784;0.15934
0.00200425000000000;42.0092;0.16034
0.00201675000000000;42.0401;0.16134
0.00202925000000000;42.0709;0.16234
0.00204175000000000;42.1018;0.16334
0.00205425000000000;42.1327;0.16434
0.00206675000000000;42.1635;0.16534
0.00207925000000000;42.1944;0.16634
0.00209175000000000;42.2253;0.16734
0.00210425000000000;42.2561;0.16834
0.00211675000000000;42.287;0.16934
0.00212925000000000;42.3178;0.17034
0.00214175000000000;42.3487;0.17134
0.00215425000000000;42.3796;0.17234
0.00216675000000000;42.4104;0.17334
0.00217925000000000;42.4413;0.17434
0.00219175000000000;42.4722;0.17534
0.00220425000000000;42.503;0.17634
0.00221675000000000;42.5339;0.17734
0.00222925000000000;42.5647;0.17834
0.00224175000000000;42.5956;0.17934
0.00225425000000000;42.6265;0.18034
0.00226675000000000;42.6573;0.18134
0.00227925000000000;42.6859;0.18234
0.00229175000000000;42.7014;0.18334
0.00230425000000000;42.7168;0.18434
0.00231675000000000;42.7322;0.18534
0.00232925000000000;42.7477;0.18634
0.00234175000000000;42.7631;0.18734
0.00235425000000000;42.7785;0.18834
0.00236675000000000;42.794;0.18934
0.00237925000000000;42.8094;0.19034
0.00239175000000000;42.8248;0.19134
0.00240425000000000;42.8403;0.19234
0.00241675000000000;42.8557;0.19334
0.00242925000000000;42.8711;0.19434
0.00244175000000000;42.8866;0.19534
0.00245425000000000;42.902;0.19634
0.00246675000000000;42.9174;0.19734
0.00247925000000000;42.9329;0.19834
0.00249175000000000;42.9483;0.19934
0.00250425000000000;42.9637;0.20034
0.00251675000000000;42.9791;0.20134
0.00252925000000000;42.9946;0.20234
0.00254175000000000;43.01;0.20334
0.00255425000000000;43.0254;0.20434
0.00256675000000000;43.0409;0.20534
0.00257925000000000;43.0563;0.20634
0.00259175000000000;43.0717;0.20734
0.00260425000000000;43.0872;0.20834
0.00261675000000000;43.1026;0.20934
0.00262925000000000;43.118;0.21034
0.00264175000000000;43.1335;0.21134
0.00265425000000000;43.1489;0.21234
0.00266675000000000;43.1643;0.21334
0.00267925000000000;43.1798;0.21434
0.00269175000000000;43.1952;0.21534
0.00270425000000000;43.2106;0.21634
0.00271675000000000;43.226;0.21734
0.00272925000000000;43.2415;0.21834
0.00274175000000000;43.2569;0.21934
0.00275425000000000;43.2723;0.22034
0.00276675000000000;43.2878;0.22134
0.00277925000000000;43.3032;0.22234
0.00279175000000000;43.3186;0.22334
0.00280425000000000;43.3341;0.22434
0.00281675000000000;43.3495;0.22534
0.00282925000000000;43.3649;0.22634
0.00284175000000000;43.3804;0.22734
0.00285425000000000;43.3958;0.22834
0.00286675000000000;43.4112;0.22934
0.00287925000000000;43.4267;0.23034
0.00289175000000000;43.4421;0.23134
0.00290425000000000;43.4575;0.23234
0.00291675000000000;43.4729;0.23334
0.00292925000000000;43.4884;0.23434
0.00294175000000000;43.5038;0.23534
0.00295425000000000;43.5192;0.23634
0.00296675000000000;43.5347;0.23734
0.00297925000000000;43.5501;0.23834
0.00299175000000000;43.5655;0.23934
0.00300425000000000;43.581;0.24034
0.00301675000000000;43.5964;0.24134
0.00302925000000000;43.6118;0.24234
0.00304175000000000;43.6273;0.24334
0.00305425000000000;43.6427;0.24434
0.00306675000000000;43.6581;0.24534
0.00307925000000000;43.6736;0.24634
0.00309175000000000;43.689;0.24734
0.00310425000000000;43.7044;0.24834
0.00311675000000000;43.7061;0.24934
0.00312925000000000;43.7061;0.25034
0.00314175000000000;43.7061;0.25134
0.00315425000000000;43.7061;0.25234
0.00316675000000000;43.7061;0.25334
0.00317925000000000;43.7061;0.25434
0.00319175000000000;43.7061;0.25534
0.00320425000000000;43.7061;0.25634
0.00321675000000000;43.7061;0.25734
0.00322925000000000;43.7061;0.25834
0.00324175000000000;43.7061;0.25934
0.00325425000000000;43.7061;0.26034
0.00326675000000000;43.7061;0.26134
0.00327925000000000;43.7061;0.26234
0.00329175000000000;43.7061;0.26334
0.00330425000000000;43.7061;0.26434
0.00331675000000000;43.7061;0.26534
0.00332925000000000;43.7061;0.26634
0.00334175000000000;43.7061;0.26734
0.00335425000000000;43.7061;0.26834
0.00336675000000000;43.7061;0.26934
0.00337925000000000;43.7061;0.27034
0.00339175000000000;43.7061;0.27134
0.00340425000000000;43.7061;0.27234
0.00341675000000000;43.7061;0.27334
0.00342925000000000;43.7061;0.27434
0.00344175000000000;43.7061;0.27534
0.00345425000000000;43.7061;0.27634
0.00346675000000000;43.7061;0.27734
0.00347925000000000;43.7061;0.27834
0.00349175000000000;43.7061;0.27934
0.00350425000000000;43.7061;0.28034
0.00351675000000000;43.7061;0.28134
0.00352925000000000;43.7061;0.28234
0.00354175000000000;43.7061;0.28334
0.00355425000000000;43.7061;0.28434
0.00356675000000000;43.7061;0.28534
0.00357925000000000;43.7061;0.28634
0.00359175000000000;43.7061;0.28734
0.00360425000000000;43.7061;0.28834
0.00361675000000000;43.7061;0.28934
0.00362925000000000;43.7061;0.29034
0.00364175000000000;43.7061;0.29134
0.00365425000000000;43.7061;0.29234
0.00366675000000000;43.7061;0.29334
0.00367925000000000;43.7061;0.29434
0.00369175000000000;43.7061;0.29534
0.00370425000000000;43.7061;0.29634
0.00371675000000000;43.7061;0.29734
0.00372925000000000;43.7061;0.29834
0.00374175000000000;43.7061;0.29934
0.00375425000000000;43.7061;0.30034
0.00376675000000000;43.7061;0.30134
0.00377925000000000;43.7061;0.30234
0.00379175000000000;43.7061;0.30334
0.00380425000000000;43.7061;0.30434
0.00381675000000000;43.7061;0.30534
0.00382925000000000;43.7061;0.30634
0.00384175000000000;43.7061;0.30734
0.00385425000000000;43.7061;0.30834
0.00386675000000000;43.7061;0.30934
0.00387925000000000;43.7061;0.31034
0.00389175000000000;43.7061;0.31134
0.00390425000000000;43.7061;0.31234
0.00391675000000000;43.7061;0.31334
0.00392925000000000;43.7061;0.31434
0.00394175000000000;43.7061;0.31534
0.00395425000000000;43.7061;0.31634
0.00396675000000000;43.7061;0.31734
0.00397925000000000;43.7061;0.31834
0.00399175000000000;43.7061;0.31934
0.00400425000000000;43.7061;0.32034
0.00401675000000000;43.7061;0.32134
0.00402925000000000;43.7061;0.32234
0.00404175000000000;43.7061;0.32334
0.00405425000000000;43.7061;0.32434
0.00406675000000000;43.7061;0.32534
0.00407925000000000;43.7061;0.32634
0.00409175000000000;43.7061;0.32734
0.00410425000000000;43.7061;0.32834
0.00411675000000000;43.7061;0.32934
0.00412925000000000;43.7061;0.33034
0.00414175000000000;43.7061;0.33134
0.00415425000000000;43.7061;0.33234
0.00416675000000000;43.7061;0.33334
0.00417925000000000;43.7061;0.33434
0.00419175000000000;43.7061;0.33534
0.00420425000000000;43.7061;0.33634
0.00421675000000000;43.7061;0.33734
0.00422925000000000;43.7061;0.33834
0.00424175000000000;43.7061;0.33934
0.00425425000000000;43.7061;0.34034
0.00426675000000000;43.7061;0.34134
0.00427925000000000;43.7061;0.34234
0.00429175000000000;43.7061;0.34334
0.00430425000000000;43.7061;0.34434
0.00431675000000000;43.7061;0.34534
0.00432925000000000;43.7061;0.34634
0.00434175000000000;43.7061;0.34734
0.00435425000000000;43.7061;0.34834
0.00436675000000000;43.7061;0.34934
0.00437925000000000;43.7061;0.35034
0.00439175000000000;43.7061;0.35134
0.00440425000000000;43.7061;0.35234
0.00441675000000000;43.7061;0.35334
0.00442925000000000;43.7061;0.35434
0.00444175000000000;43.7061;0.35534
0.00445425000000000;43.7061;0.35634
0.00446675000000000;43.7061;0.35734
0.00447925000000000;43.7061;0.35834
0.00449175000000000;43.7061;0.35934
0.00450425000000000;43.7061;0.36034
0.00451675000000000;43.7061;0.36134
0.00452925000000000;43.7061;0.36234
0.00454175000000000;43.7061;0.36334
0.00455425000000000;43.7061;0.36434
0.00456675000000000;43.7061;0.36534
0.00457925000000000;43.7061;0.36634
0.00459175000000000;43.7061;0.36734
0.00460425000000000;43.7061;0.36834
0.00461675000000000;43.7061;0.36934
0.00462925000000000;43.7061;0.37034
0.00464175000000000;43.7061;0.37134
0.00465425000000000;43.7061;0.37234
0.00466675000000000;43.7061;0.37334
0.00467925000000000;43.7061;0.37434
0.00469175000000000;43.7061;0.37534
0.00470425000000000;43.7061;0.37634
0.00471675000000000;43.7061;0.37734
0.00472925000000000;43.7061;0.37834
0.00474175000000000;43.7061;0.37934
0.00475425000000000;43.7061;0.38034
0.00476675000000000;43.7061;0.38134
0.00477925000000000;43.7061;0.38234
0.00479175000000000;43.7061;0.38334
0.00480425000000000;43.7061;0.38434
0.00481675000000000;43.7061;0.38534
0.00482925000000000;43.7061;0.38634
0.00484175000000000;43.7061;0.38734
0.00485425000000000;43.7061;0.38834
0.00486675000000000;43.7061;0.38934
0.00487925000000000;43.7061;0.39034
0.00489175000000000;43.7061;0.39134
0.00490425000000000;43.7061;0.39234
0.00491675000000000;43.7061;0.39334
0.00492925000000000;43.7061;0.39434
0.00494175000000000;43.7061;0.39534
0.00495425000000000;43.7061;0.39634
0.00496675000000000;43.7061;0.39734
0.00497925000000000;43.7061;0.39834
0.00499175000000000;43.7061;0.39934
0.00500425000000000;43.7061;0.40034
0.00501675000000000;43.7061;0.40134
0.00502925000000000;43.7061;0.40234
0.00504175000000000;43.7061;0.40334
0.00505425000000000;43.7061;0.40434
0.00506675000000000;43.7061;0.40534
0.00507925000000000;43.7061;0.40634
0.00509175000000000;43.7061;0.40734
0.00510425000000000;43.7061;0.40834
0.00511675000000000;43.7061;0.40934
0.00512925000000000;43.7061;0.41034
0.00514175000000000;43.7061;0.41134
0.00515425000000000;43.7061;0.41234
0.00516675000000000;43.7061;0.41334
0.00517925000000000;43.7101;0.41434
0.00519175000000000;43.7255;0.41534
0.00520425000000000;43.741;0.41634
0.00521675000000000;43.7564;0.41734
0.00522925000000000;43.7718;0.41834
0.00524175000000000;43.7873;0.41934
0.00525425000000000;43.8027;0.42034
0.00526675000000000;43.8181;0.42134
0.00527925000000000;43.8336;0.42234
0.00529175000000000;43.849;0.42334
0.00530425000000000;43.8644;0.42434
0.00531675000000000;43.8798;0.42534
0.00532925000000000;43.8953;0.42634
0.00534175000000000;43.9107;0.42734
0.00535425000000000;43.9261;0.42834
0.00536675000000000;43.9416;0.42934
0.00537925000000000;43.957;0.43034
0.00539175000000000;43.9724;0.43134
0.00540425000000000;43.9879;0.43234
0.00541675000000000;44.0033;0.43334
0.00542925000000000;44.0187;0.43434
0.00544175000000000;44.0342;0.43534
0.00545425000000000;44.0496;0.43634
0.00546675000000000;44.065;0.43734
0.00547925000000000;44.0805;0.43834
0.00549175000000000;44.0959;0.43934
0.00550425000000000;44.1113;0.44034
0.00551675000000000;44.1267;0.44134
0.00552925000000000;44.1422;0.44234
0.00554175000000000;44.1576;0.44334
0.00555425000000000;44.173;0.44434
0.00556675000000000;44.1885;0.44534
0.00557925000000000;44.2039;0.44634
0.00559175000000000;44.2193;0.44734
0.00560425000000000;44.2348;0.44834
0.00561675000000000;44.2502;0.44934
0.00562925000000000;44.2656;0.45034
0.00564175000000000;44.2811;0.45134
0.00565425000000000;44.2965;0.45234
0.00566675000000000;44.3119;0.45334
0.00567925000000000;44.3274;0.45434
0.00569175000000000;44.3428;0.45534
0.00570425000000000;44.3582;0.45634
0.00571675000000000;44.3736;0.45734
0.00572925000000000;44.3891;0.45834
0.00574175000000000;44.4045;0.45934
0.00575425000000000;44.4199;0.46034
0.00576675000000000;44.4354;0.46134
0.00577925000000000;44.4508;0.46234
0.00579175000000000;44.4662;0.46334
0.00580425000000000;44.4817;0.46434
0.00581675000000000;44.4971;0.46534
0.00582925000000000;44.5125;0.46634
0.00584175000000000;44.528;0.46734
0.00585425000000000;44.5434;0.46834
0.00586675000000000;44.5588;0.46934
0.00587925000000000;44.5743;0.47034
0.00589175000000000;44.5897;0.47134
0.00590425000000000;44.6051;0.47234
0.00591675000000000;44.6206;0.47334
0.00592925000000000;44.636;0.47434
0.00594175000000000;44.6514;0.47534
0.00595425000000000;44.6668;0.47634
0.00596675000000000;44.6823;0.47734
0.00597925000000000;44.6977;0.47834
0.00599175000000000;44.7131;0.47934
0.00600425000000000;44.7286;0.48034
0.00601675000000000;44.744;0.48134
0.00602925000000000;44.7594;0.48234
0.00604175000000000;44.7749;0.48334
0.00605425000000000;44.7903;0.48434
0.00606675000000000;44.8057;0.48534
0.00607925000000000;44.8212;0.48634
0.00609175000000000;44.8366;0.48734
0.00610425000000000;44.852;0.48834
0.00611675000000000;44.8675;0.48934
0.00612925000000000;44.8829;0.49034
0.00614175000000000;44.8983;0.49134
0.00615425000000000;44.9137;0.49234
0.00616675000000000;44.9292;0.49334
0.00617925000000000;44.9446;0.49434
0.00619175000000000;44.96;0.49534
0.00620425000000000;44.9755;0.49634
0.00621675000000000;44.9909;0.49734
0.00622925000000000;45.0063;0.49834
0.00624175000000000;45.0218;0.49934
0.00625425000000000;45.0372;0.50034
0.00626675000000000;45.0526;0.50134
0.00627925000000000;45.0681;0.50234
0.00629175000000000;45.0835;0.50334
0.00630425000000000;45.0989;0.50434
0.00631675000000000;45.1144;0.50534
0.00632925000000000;45.1298;0.50634
0.00634175000000000;45.1452;0.50734
0.00635425000000000;45.1606;0.50834
0.00636675000000000;45.1761;0.50934
0.00637925000000000;45.1915;0.51034
0.00639175000000000;45.2069;0.51134
0.00640425000000000;45.2224;0.51234
0.00641675000000000;45.2378;0.51334
0.00642925000000000;45.2396;0.51434
0.00644175000000000;45.2396;0.51534
0.00645425000000000;45.2396;0.51634
0.00646675000000000;45.2396;0.51734
0.00647925000000000;45.2396;0.51834
0.00649175000000000;45.2396;0.51934
0.00650425000000000;45.2396;0.52034
0.00651675000000000;45.2396;0.52134
0.00652925000000000;45.2396;0.52234
0.00654175000000000;45.2396;0.52334
0.00655425000000000;45.2396;0.52434
0.00656675000000000;45.2396;0.52534
0.00657925000000000;45.2396;0.52634
0.00659175000000000;45.2396;0.52734
0.00660425000000000;45.2396;0.52834
0.00661675000000000;45.2396;0.52934
0.00662925000000000;45.2396;0.53034
0.00664175000000000;45.2396;0.53134
0.00665425000000000;45.2396;0.53234
0.00666675000000000;45.2396;0.53334
0.00667925000000000;45.2396;0.53434
0.00669175000000000;45.2396;0.53534
0.00670425000000000;45.2396;0.53634
0.00671675000000000;45.2396;0.53734
0.00672925000000000;45.2396;0.53834
0.00674175000000000;45.2396;0.53934
0.00675425000000000;45.2396;0.54034
0.00676675000000000;45.2396;0.54134
0.00677925000000000;45.2396;0.54234
0.00679175000000000;45.2396;0.54334
0.00680425000000000;45.2396;0.54434
0.00681675000000000;45.2396;0.54534
0.00682925000000000;45.2396;0.54634
0.00684175000000000;45.2396;0.54734
0.00685425000000000;45.2396;0.54834
0.00686675000000000;45.2396;0.54934
0.00687925000000000;45.2396;0.55034
0.00689175000000000;45.2396;0.55134
0.00690425000000000;45.2396;0.55234
0.00691675000000000;45.2396;0.55334
0.00692925000000000;45.2396;0.55434
0.00694175000000000;45.2396;0.55534
0.00695425000000000;45.2396;0.55634
0.00696675000000000;45.2396;0.55734
0.00697925000000000;45.2396;0.55834
0.00699175000000000;45.2396;0.55934
0.00700425000000000;45.2396;0.56034
0.00701675000000000;45.2396;0.56134
0.00702925000000000;45.2396;0.56234
0.00704175000000000;45.2396;0.56334
0.00705425000000000;45.2396;0.56434
0.00706675000000000;45.2396;0.56534
0.00707925000000000;45.2396;0.56634
0.00709175000000000;45.2396;0.56734
0.00710425000000000;45.2396;0.56834
0.00711675000000000;45.2396;0.56934
0.00712925000000000;45.2396;0.57034
0.00714175000000000;45.2396;0.57134
0.00715425000000000;45.2396;0.57234
0.00716675000000000;45.2396;0.57334
0.00717925000000000;45.2396;0.57434
0.00719175000000000;45.2396;0.57534
0.00720425000000000;45.2396;0.57634
0.00721675000000000;45.2396;0.57734
0.00722925000000000;45.2396;0.57834
0.00724175000000000;45.2396;0.57934
0.00725425000000000;45.2396;0.58034
0.00726675000000000;45.2396;0.58134
0.00727925000000000;45.2396;0.58234
0.00729175000000000;45.2396;0.58334
0.00730425000000000;45.2396;0.58434
0.00731675000000000;45.2396;0.58534
0.00732925000000000;45.2396;0.58634
0.00734175000000000;45.2396;0.58734
0.00735425000000000;45.2396;0.58834
0.00736675000000000;45.2396;0.58934
0.00737925000000000;45.2396;0.59034
0.00739175000000000;45.2396;0.59134
0.00740425000000000;45.2396;0.59234
0.00741675000000000;45.2396;0.59334
0.00742925000000000;45.2396;0.59434
0.00744175000000000;45.2396;0.59534
0.00745425000000000;45.2396;0.59634
0.00746675000000000;45.2396;0.59734
0.00747925000000000;45.2396;0.59834
0.00749175000000000;45.2396;0.59934
0.00750425000000000;45.2396;0.60034
0.00751675000000000;45.2396;0.60134
0.00752925000000000;45.2396;0.60234
0.00754175000000000;45.2396;0.60334
0.00755425000000000;45.2396;0.60434
0.00756675000000000;45.2396;0.60534
0.00757925000000000;45.2396;0.60634
0.00759175000000000;45.2396;0.60734
0.00760425000000000;45.2396;0.60834
0.00761675000000000;45.2396;0.60934
0.00762925000000000;45.2396;0.61034
0.00764175000000000;45.2396;0.61134
0.00765425000000000;45.2396;0.61234
0.00766675000000000;45.2474;0.61334
0.00767925000000000;45.2628;0.61434
0.00769175000000000;45.2782;0.61534
0.00770425000000000;45.2937;0.61634
0.00771675000000000;45.3091;0.61734
0.00772925000000000;45.3245;0.61834
0.00774175000000000;45.34;0.61934
0.00775425000000000;45.3554;0.62034
0.00776675000000000;45.3708;0.62134
0.00777925000000000;45.3863;0.62234
0.00779175000000000;45.4017;0.62334
0.00780425000000000;45.4171;0.62434
0.00781675000000000;45.4326;0.62534
0.00782925000000000;45.448;0.62634
0.00784175000000000;45.4634;0.62734
0.00785425000000000;45.4789;0.62834
0.00786675000000000;45.4943;0.62934
0.00787925000000000;45.5097;0.63034
0.00789175000000000;45.5252;0.63134
0.00790425000000000;45.5406;0.63234
0.00791675000000000;45.556;0.63334
0.00792925000000000;45.5714;0.63434
0.00794175000000000;45.5869;0.63534
0.00795425000000000;45.6023;0.63634
0.00796675000000000;45.6177;0.63734
0.00797925000000000;45.6332;0.63834
0.00799175000000000;45.6486;0.63934
0.00800425000000000;45.664;0.64034
0.00801675000000000;45.6795;0.64134
0.00802925000000000;45.6949;0.64234
0.00804175000000000;45.7103;0.64334
0.00805425000000000;45.7258;0.64434
0.00806675000000000;45.7412;0.64534
0.00807925000000000;45.7566;0.64634
0.00809175000000000;45.7721;0.64734
0.00810425000000000;45.7875;0.64834
0.00811675000000000;45.8029;0.64934
0.00812925000000000;45.8183;0.65034
0.00814175000000000;45.8338;0.65134
0.00815425000000000;45.8492;0.65234
0.00816675000000000;45.8646;0.65334
0.00817925000000000;45.8801;0.65434
0.00819175000000000;45.8955;0.65534
0.00820425000000000;45.9109;0.65634
0.00821675000000000;45.9264;0.65734
0.00822925000000000;45.9418;0.65834
0.00824175000000000;45.9572;0.65934
0.00825425000000000;45.9727;0.66034
0.00826675000000000;45.9881;0.66134
0.00827925000000000;46.0035;0.66234
0.00829175000000000;46.019;0.66334
0.00830425000000000;46.0344;0.66434
0.00831675000000000;46.0498;0.66534
0.00832925000000000;46.0652;0.66634
0.00834175000000000;46.0807;0.66734
0.00835425000000000;46.0961;0.66834
0.00836675000000000;46.1115;0.66934
0.00837925000000000;46.127;0.67034
0.00839175000000000;46.1424;0.67134
0.00840425000000000;46.1578;0.67234
0.00841675000000000;46.1733;0.67334
0.00842925000000000;46.1887;0.67434
0.00844175000000000;46.2041;0.67534
0.00845425000000000;46.2196;0.67634
0.00846675000000000;46.235;0.67734
0.00847925000000000;46.2504;0.67834
0.00849175000000000;46.262;0.67934
0.00850425000000000;46.262;0.68034
0.00851675000000000;46.262;0.68134
0.00852925000000000;46.262;0.68234
0.00854175000000000;46.262;0.68334
0.00855425000000000;46.262;0.68434
0.00856675000000000;46.262;0.68534
0.00857925000000000;46.262;0.68634
0.00859175000000000;46.262;0.68734
0.00860425000000000;46.262;0.68834
0.00861675000000000;46.262;0.68934
0.00862925000000000;46.262;0.69034
0.00864175000000000;46.262;0.69134
0.00865425000000000;46.262;0.69234
0.00866675000000000;46.262;0.69334
0.00867925000000000;46.262;0.69434
0.00869175000000000;46.262;0.69534
0.00870425000000000;46.262;0.69634
0.00871675000000000;46.262;0.69734
0.00872925000000000;46.262;0.69834
0.00874175000000000;46.262;0.69934
0.00875425000000000;46.262;0.70034
0.00876675000000000;46.262;0.70134
0.00877925000000000;46.262;0.70234
0.00879175000000000;46.262;0.70334
0.00880425000000000;46.262;0.70434
0.00881675000000000;46.262;0.70534
0.00882925000000000;46.262;0.70634
0.00884175000000000;46.262;0.70734
0.00885425000000000;46.262;0.70834
0.00886675000000000;46.262;0.70934
0.00887925000000000;46.262;0.71034
0.00889175000000000;46.262;0.71134
0.00890425000000000;46.2639;0.71234
0.00891675000000000;46.2793;0.71334
0.00892925000000000;46.2948;0.71434
0.00894175000000000;46.3102;0.71534
0.00895425000000000;46.3256;0.71634
0.00896675000000000;46.3411;0.71734
0.00897925000000000;46.3565;0.71834
0.00899175000000000;46.3719;0.71934
0.00900425000000000;46.3874;0.72034
0.00901675000000000;46.4028;0.72134
0.00902925000000000;46.4182;0.72234
0.00904175000000000;46.4336;0.72334
0.00905425000000000;46.4491;0.72434
0.00906675000000000;46.4645;0.72534
0.00907925000000000;46.4799;0.72634
0.00909175000000000;46.4954;0.72734
0.00910425000000000;46.5108;0.72834
0.00911675000000000;46.5262;0.72934
0.00912925000000000;46.5417;0.73034
0.00914175000000000;46.5571;0.73134
0.00915425000000000;46.5725;0.73234
0.00916675000000000;46.588;0.73334
0.00917925000000000;46.6034;0.73434
0.00919175000000000;46.6188;0.73534
0.00920425000000000;46.6343;0.73634
0.00921675000000000;46.6497;0.73734
0.00922925000000000;46.6651;0.73834
0.00924175000000000;46.6806;0.73934
0.00925425000000000;46.696;0.74034
0.00926675000000000;46.7114;0.74134
0.00927925000000000;46.7268;0.74234
0.00929175000000000;46.7423;0.74334
0.00930425000000000;46.7577;0.74434
0.00931675000000000;46.7731;0.74534
0.00932925000000000;46.7732;0.74634
0.00934175000000000;46.7732;0.74734
0.00935425000000000;46.7732;0.74834
0.00936675000000000;46.7732;0.74934
0.00937925000000000;46.7732;0.75034
0.00939175000000000;46.7732;0.75134
0.00940425000000000;46.7732;0.75234
0.00941675000000000;46.7732;0.75334
0.00942925000000000;46.7732;0.75434
0.00944175000000000;46.7732;0.75534
0.00945425000000000;46.7732;0.75634
0.00946675000000000;46.7732;0.75734
0.00947925000000000;46.7732;0.75834
0.00949175000000000;46.7732;0.75934
0.00950425000000000;46.7732;0.76034
0.00951675000000000;46.7732;0.76134
0.00952925000000000;46.7732;0.76234
0.00954175000000000;46.7732;0.76334
0.00955425000000000;46.7732;0.76434
0.00956675000000000;46.7732;0.76534
0.00957925000000000;46.7732;0.76634
0.00959175000000000;46.7732;0.76734
0.00960425000000000;46.7732;0.76834
0.00961675000000000;46.7732;0.76934
0.00962925000000000;46.7732;0.77034
0.00964175000000000;46.7732;0.77134
0.00965425000000000;46.7732;0.77234
0.00966675000000000;46.7732;0.77334
0.00967925000000000;46.7732;0.77434
0.00969175000000000;46.7732;0.77534
0.00970425000000000;46.7732;0.77634
0.00971675000000000;46.7732;0.77734
0.00972925000000000;46.7732;0.77834
0.00974175000000000;46.8001;0.77934
0.00975425000000000;46.8309;0.78034
0.00976675000000000;46.8618;0.78134
0.00977925000000000;46.8927;0.78234
0.00979175000000000;46.9235;0.78334
0.00980425000000000;46.9544;0.78434
0.00981675000000000;46.9853;0.78534
0.00982925000000000;47.0161;0.78634
0.00984175000000000;47.047;0.78734
0.00985425000000000;47.0778;0.78834
0.00986675000000000;47.1087;0.78934
0.00987925000000000;47.1396;0.79034
0.00989175000000000;47.1704;0.79134
0.00990425000000000;47.2013;0.79234
0.00991675000000000;47.2322;0.79334
0.00992925000000000;47.263;0.79434
0.00994175000000000;47.2939;0.79534
0.00995425000000000;47.3247;0.79634
0.00996675000000000;47.3556;0.79734
0.00997925000000000;47.3865;0.79834
0.00999175000000000;47.4173;0.79934
0.0100042500000000;47.4482;0.80034
0.0100167500000000;47.4791;0.80134
0.0100292500000000;47.5099;0.80234
0.0100417500000000;47.5408;0.80334
0.0100542500000000;47.5716;0.80434
0.0100667500000000;47.6025;0.80534
0.0100792500000000;47.6334;0.80634
0.0100917500000000;47.6642;0.80734
0.0101042500000000;47.6951;0.80834
0.0101167500000000;47.726;0.80934
0.0101292500000000;47.7568;0.81034
0.0101417500000000;47.7877;0.81134
0.0101542500000000;47.807;0.81234
0.0101667500000000;47.8225;0.81334
0.0101792500000000;47.8379;0.81434
0.0101917500000000;47.8533;0.81534
0.0102042500000000;47.8688;0.81634
0.0102167500000000;47.8842;0.81734
0.0102292500000000;47.8996;0.81834
0.0102417500000000;47.9151;0.81934
0.0102542500000000;47.9305;0.82034
0.0102667500000000;47.9459;0.82134
0.0102792500000000;47.9613;0.82234
0.0102917500000000;47.9768;0.82334
0.0103042500000000;47.9922;0.82434
0.0103167500000000;48.0076;0.82534
0.0103292500000000;48.0231;0.82634
0.0103417500000000;48.0385;0.82734
0.0103542500000000;48.0539;0.82834
0.0103667500000000;48.0694;0.82934
0.0103792500000000;48.0848;0.83034
0.0103917500000000;48.1002;0.83134
0.0104042500000000;48.1157;0.83234
0.0104167500000000;48.1311;0.83334
0.0104292500000000;48.1465;0.83434
0.0104417500000000;48.162;0.83534
0.0104542500000000;48.1774;0.83634
0.0104667500000000;48.1928;0.83734
0.0104792500000000;48.2082;0.83834
0.0104917500000000;48.2237;0.83934
0.0105042500000000;48.2391;0.84034
0.0105167500000000;48.2545;0.84134
0.0105292500000000;48.27;0.84234
0.0105417500000000;48.2854;0.84334
0.0105542500000000;48.3008;0.84434
0.0105667500000000;48.3163;0.84534
0.0105792500000000;48.3317;0.84634
0.0105917500000000;48.3471;0.84734
0.0106042500000000;48.3626;0.84834
0.0106167500000000;48.378;0.84934
0.0106292500000000;48.3934;0.85034
0.0106417500000000;48.4089;0.85134
0.0106542500000000;48.4243;0.85234
0.0106667500000000;48.4397;0.85334
0.0106792500000000;48.4552;0.85434
0.0106917500000000;48.4706;0.85534
0.0107042500000000;48.486;0.85634
0.0107167500000000;48.5014;0.85734
0.0107292500000000;48.5169;0.85834
0.0107417500000000;48.5323;0.85934
0.0107542500000000;48.5477;0.86034
0.0107667500000000;48.5632;0.86134
0.0107792500000000;48.5786;0.86234
0.0107917500000000;48.594;0.86334
0.0108042500000000;48.6095;0.86434
0.0108167500000000;48.6249;0.86534
0.0108292500000000;48.6403;0.86634
0.0108417500000000;48.6558;0.86734
0.0108542500000000;48.6712;0.86834
0.0108667500000000;48.6866;0.86934
0.0108792500000000;48.7021;0.87034
0.0108917500000000;48.7175;0.87134
0.0109042500000000;48.7329;0.87234
0.0109167500000000;48.7483;0.87334
0.0109292500000000;48.7638;0.87434
0.0109417500000000;48.7792;0.87534
0.0109542500000000;48.7946;0.87634
0.0109667500000000;48.8101;0.87734
0.0109792500000000;48.8255;0.87834
0.0109917500000000;48.8409;0.87934
0.0110042500000000;48.8564;0.88034
0.0110167500000000;48.8718;0.88134
0.0110292500000000;48.8872;0.88234
0.0110417500000000;48.9027;0.88334
0.0110542500000000;48.9181;0.88434
0.0110667500000000;48.9335;0.88534
0.0110792500000000;48.949;0.88634
0.0110917500000000;48.9644;0.88734
0.0111042500000000;48.9798;0.88834
0.0111167500000000;48.9952;0.88934
0.0111292500000000;49.0107;0.89034
0.0111417500000000;49.0261;0.89134
0.0111542500000000;49.0415;0.89234
0.0111667500000000;49.057;0.89334
0.0111792500000000;49.0724;0.89434
0.0111917500000000;49.0878;0.89534
0.0112042500000000;49.1033;0.89634
0.0112167500000000;49.1187;0.89734
0.0112292500000000;49.1341;0.89834
0.0112417500000000;49.1496;0.89934
0.0112542500000000;49.165;0.90034
0.0112667500000000;49.1804;0.90134
0.0112792500000000;49.1959;0.90234
0.0112917500000000;49.2113;0.90334
0.0113042500000000;49.2267;0.90434
0.0113167500000000;49.2421;0.90534
0.0113292500000000;49.2576;0.90634
0.0113417500000000;49.273;0.90734
0.0113542500000000;49.2884;0.90834
0.0113667500000000;49.3039;0.90934
0.0113792500000000;49.3193;0.91034
0.0113917500000000;49.3291;0.91134
0.0114042500000000;49.3291;0.91234
0.0114167500000000;49.3291;0.91334
0.0114292500000000;49.3291;0.91434
0.0114417500000000;49.3291;0.91534
0.0114542500000000;49.3291;0.91634
0.0114667500000000;49.3291;0.91734
0.0114792500000000;49.3291;0.91834
0.0114917500000000;49.3291;0.91934
0.0115042500000000;49.3291;0.92034
0.0115167500000000;49.3291;0.92134
0.0115292500000000;49.3291;0.92234
0.0115417500000000;49.3291;0.92334
0.0115542500000000;49.3291;0.92434
0.0115667500000000;49.3291;0.92534
0.0115792500000000;49.3291;0.92634
0.0115917500000000;49.3291;0.92734
0.0116042500000000;49.3291;0.92834
0.0116167500000000;49.3291;0.92934
0.0116292500000000;49.3291;0.93034
0.0116417500000000;49.3291;0.93134
0.0116542500000000;49.3291;0.93234
0.0116667500000000;49.3291;0.93334
0.0116792500000000;49.3291;0.93434
0.0116917500000000;49.3291;0.93534
0.0117042500000000;49.3291;0.93634
0.0117167500000000;49.3291;0.93734
0.0117292500000000;49.3291;0.93834
0.0117417500000000;49.3291;0.93934
0.0117542500000000;49.3291;0.94034
0.0117667500000000;49.3291;0.94134
0.0117792500000000;49.3291;0.94234
0.0117917500000000;49.3291;0.94334
0.0118042500000000;49.3291;0.94434
0.0118167500000000;49.3291;0.94534
0.0118292500000000;49.3291;0.94634
0.0118417500000000;49.3291;0.94734
0.0118542500000000;49.3291;0.94834
0.0118667500000000;49.3291;0.94934
0.0118792500000000;49.3291;0.95034
0.0118917500000000;49.3291;0.95134
0.0119042500000000;49.3291;0.95234
0.0119167500000000;49.3291;0.95334
0.0119292500000000;49.3291;0.95434
0.0119417500000000;49.3291;0.95534
0.0119542500000000;49.3291;0.95634
0.0119667500000000;49.3291;0.95734
0.0119792500000000;49.3291;0.95834
0.0119917500000000;49.3291;0.95934
0.0120042500000000;49.3291;0.96034
0.0120167500000000;49.3291;0.96134
0.0120292500000000;49.3291;0.96234
0.0120417500000000;49.3291;0.96334
0.0120542500000000;49.3291;0.96434
0.0120667500000000;49.3291;0.96534
0.0120792500000000;49.3291;0.96634
0.0120917500000000;49.3291;0.96734
0.0121042500000000;49.3291;0.96834
0.0121167500000000;49.3291;0.96934
0.0121292500000000;49.3291;0.97034
0.0121417500000000;49.3291;0.97134
0.0121542500000000;49.3291;0.97234
0.0121667500000000;49.3291;0.97334
0.0121792500000000;49.3291;0.97434
0.0121917500000000;49.3291;0.97534
0.0122042500000000;49.3291;0.97634
0.0122167500000000;49.3291;0.97734
0.0122292500000000;49.3291;0.97834
0.0122417500000000;49.3291;0.97934
0.0122542500000000;49.3291;0.98034
0.0122667500000000;49.3291;0.98134
0.0122792500000000;49.3291;0.98234
0.0122917500000000;49.3291;0.98334
0.0123042500000000;49.3291;0.98434
0.0123167500000000;49.3291;0.98534
0.0123292500000000;49.3291;0.98634
0.0123417500000000;49.3291;0.98734
0.0123542500000000;49.3291;0.98834
0.0123667500000000;49.3291;0.98934
0.0123792500000000;49.3291;0.99034
0.0123917500000000;49.3291;0.99134
0.0124042500000000;49.3291;0.99234
0.0124167500000000;49.3291;0.99334
0.0124292500000000;49.3291;0.99434
0.0124417500000000;49.3291;0.99534
0.0124542500000000;49.3291;0.99634
0.0124667500000000;49.3291;0.99734
0.0124792500000000;49.3291;0.99834
0.0124917500000000;49.3291;0.99934
0.0125042500000000;49.3291;1.00034
0.0125167500000000;49.3291;1.00134
0.0125292500000000;49.3291;1.00234
0.0125417500000000;49.3291;1.00334
0.0125542500000000;49.3291;1.00434
0.0125667500000000;49.3291;1.00534
0.0125792500000000;49.3291;1.00634
0.0125917500000000;49.3291;1.00734
0.0126042500000000;49.3291;1.00834
0.0126167500000000;49.3291;1.00934
0.0126292500000000;49.3291;1.01034
0.0126417500000000;49.3138;1.01134
0.0126542500000000;49.2984;1.01234
0.0126667500000000;49.283;1.01334
0.0126792500000000;49.2675;1.01434
0.0126917500000000;49.2521;1.01534
0.0127042500000000;49.2367;1.01634
0.0127167500000000;49.2212;1.01734
0.0127292500000000;49.2058;1.01834
0.0127417500000000;49.1904;1.01934
0.0127542500000000;49.1749;1.02034
0.0127667500000000;49.1595;1.02134
0.0127792500000000;49.1441;1.02234
0.0127917500000000;49.1287;1.02334
0.0128042500000000;49.1132;1.02434
0.0128167500000000;49.0978;1.02534
0.0128292500000000;49.0824;1.02634
0.0128417500000000;49.0669;1.02734
0.0128542500000000;49.0515;1.02834
0.0128667500000000;49.0361;1.02934
0.0128792500000000;49.0206;1.03034
0.0128917500000000;49.0052;1.03134
0.0129042500000000;48.9898;1.03234
0.0129167500000000;48.9743;1.03334
0.0129292500000000;48.9589;1.03434
0.0129417500000000;48.9435;1.03534
0.0129542500000000;48.928;1.03634
0.0129667500000000;48.9126;1.03734
0.0129792500000000;48.8972;1.03834
0.0129917500000000;48.8818;1.03934
0.0130042500000000;48.8663;1.04034
0.0130167500000000;48.8509;1.04134
0.0130292500000000;48.8355;1.04234
0.0130417500000000;48.82;1.04334
0.0130542500000000;48.7913;1.04434
0.0130667500000000;48.7604;1.04534
0.0130792500000000;48.7296;1.04634
0.0130917500000000;48.6987;1.04734
0.0131042500000000;48.6678;1.04834
0.0131167500000000;48.637;1.04934
0.0131292500000000;48.6061;1.05034
0.0131417500000000;48.5753;1.05134
0.0131542500000000;48.5444;1.05234
0.0131667500000000;48.5135;1.05334
0.0131792500000000;48.4827;1.05434
0.0131917500000000;48.4518;1.05534
0.0132042500000000;48.4209;1.05634
0.0132167500000000;48.3901;1.05734
0.0132292500000000;48.3592;1.05834
0.0132417500000000;48.3284;1.05934
0.0132542500000000;48.2975;1.06034
0.0132667500000000;48.2666;1.06134
0.0132792500000000;48.2358;1.06234
0.0132917500000000;48.2049;1.06334
0.0133042500000000;48.174;1.06434
0.0133167500000000;48.1432;1.06534
0.0133292500000000;48.1123;1.06634
0.0133417500000000;48.0815;1.06734
0.0133542500000000;48.0506;1.06834
0.0133667500000000;48.0197;1.06934
0.0133792500000000;47.9889;1.07034
0.0133917500000000;47.958;1.07134
0.0134042500000000;47.9271;1.07234
0.0134167500000000;47.8963;1.07334
0.0134292500000000;47.8654;1.07434
0.0134417500000000;47.8346;1.07534
0.0134542500000000;47.8037;1.07634
0.0134667500000000;47.7501;1.07734
0.0134792500000000;47.6884;1.07834
0.0134917500000000;47.6267;1.07934
0.0135042500000000;47.565;1.08034
0.0135167500000000;47.5032;1.08134
0.0135292500000000;47.4415;1.08234
0.0135417500000000;47.3798;1.08334
0.0135542500000000;47.3181;1.08434
0.0135667500000000;47.2563;1.08534
0.0135792500000000;47.1946;1.08634
0.0135917500000000;47.1329;1.08734
0.0136042500000000;47.0712;1.08834
0.0136167500000000;47.0094;1.08934
0.0136292500000000;46.9477;1.09034
0.0136417500000000;46.886;1.09134
0.0136542500000000;46.8243;1.09234
0.0136667500000000;46.7625;1.09334
0.0136792500000000;46.7008;1.09434
0.0136917500000000;46.6391;1.09534
0.0137042500000000;46.5774;1.09634
0.0137167500000000;46.5156;1.09734
0.0137292500000000;46.4539;1.09834
0.0137417500000000;46.3922;1.09934
0.0137542500000000;46.3305;1.10034
0.0137667500000000;46.2687;1.10134
0.0137792500000000;46.207;1.10234
0.0137917500000000;46.1453;1.10334
0.0138042500000000;46.0836;1.10434
0.0138167500000000;46.0218;1.10534
0.0138292500000000;45.9601;1.10634
0.0138417500000000;45.8984;1.10734
0.0138542500000000;45.8366;1.10834
0.0138667500000000;45.7749;1.10934
0.0138792500000000;45.7414;1.11034
0.0138917500000000;45.726;1.11134
0.0139042500000000;45.7105;1.11234
0.0139167500000000;45.6951;1.11334
0.0139292500000000;45.6797;1.11434
0.0139417500000000;45.6642;1.11534
0.0139542500000000;45.6488;1.11634
0.0139667500000000;45.6334;1.11734
0.0139792500000000;45.6179;1.11834
0.0139917500000000;45.6025;1.11934
0.0140042500000000;45.5871;1.12034
0.0140167500000000;45.5717;1.12134
0.0140292500000000;45.5562;1.12234
0.0140417500000000;45.5408;1.12334
0.0140542500000000;45.5254;1.12434
0.0140667500000000;45.5099;1.12534
0.0140792500000000;45.4945;1.12634
0.0140917500000000;45.4791;1.12734
0.0141042500000000;45.4636;1.12834
0.0141167500000000;45.4482;1.12934
0.0141292500000000;45.4328;1.13034
0.0141417500000000;45.4173;1.13134
0.0141542500000000;45.4019;1.13234
0.0141667500000000;45.3865;1.13334
0.0141792500000000;45.371;1.13434
0.0141917500000000;45.3556;1.13534
0.0142042500000000;45.3402;1.13634
0.0142167500000000;45.3248;1.13734
0.0142292500000000;45.3093;1.13834
0.0142417500000000;45.2939;1.13934
0.0142542500000000;45.2785;1.14034
0.0142667500000000;45.263;1.14134
0.0142792500000000;45.2476;1.14234
0.0142917500000000;45.2396;1.14334
0.0143042500000000;45.2396;1.14434
0.0143167500000000;45.2396;1.14534
0.0143292500000000;45.2396;1.14634
0.0143417500000000;45.2396;1.14734
0.0143542500000000;45.2396;1.14834
0.0143667500000000;45.2396;1.14934
0.0143792500000000;45.2396;1.15034
0.0143917500000000;45.2396;1.15134
0.0144042500000000;45.2396;1.15234
0.0144167500000000;45.2396;1.15334
0.0144292500000000;45.2396;1.15434
0.0144417500000000;45.2396;1.15534
0.0144542500000000;45.2396;1.15634
0.0144667500000000;45.2396;1.15734
0.0144792500000000;45.2396;1.15834
0.0144917500000000;45.2396;1.15934
0.0145042500000000;45.2396;1.16034
0.0145167500000000;45.2396;1.16134
0.0145292500000000;45.2396;1.16234
0.0145417500000000;45.2396;1.16334
0.0145542500000000;45.2396;1.16434
0.0145667500000000;45.2396;1.16534
0.0145792500000000;45.2396;1.16634
0.0145917500000000;45.2396;1.16734
0.0146042500000000;45.2396;1.16834
0.0146167500000000;45.2396;1.16934
0.0146292500000000;45.2396;1.17034
0.0146417500000000;45.2396;1.17134
0.0146542500000000;45.2396;1.17234
0.0146667500000000;45.2396;1.17334
0.0146792500000000;45.2396;1.17434
0.0146917500000000;45.2396;1.17534
0.0147042500000000;45.2451;1.17634
0.0147167500000000;45.2606;1.17734
0.0147292500000000;45.276;1.17834
0.0147417500000000;45.2914;1.17934
0.0147542500000000;45.3068;1.18034
0.0147667500000000;45.3223;1.18134
0.0147792500000000;45.3377;1.18234
0.0147917500000000;45.3531;1.18334
0.0148042500000000;45.3686;1.18434
0.0148167500000000;45.384;1.18534
0.0148292500000000;45.3994;1.18634
0.0148417500000000;45.4149;1.18734
0.0148542500000000;45.4303;1.18834
0.0148667500000000;45.4457;1.18934
0.0148792500000000;45.4612;1.19034
0.0148917500000000;45.4766;1.19134
0.0149042500000000;45.492;1.19234
0.0149167500000000;45.5075;1.19334
0.0149292500000000;45.5229;1.19434
0.0149417500000000;45.5383;1.19534
0.0149542500000000;45.5537;1.19634
0.0149667500000000;45.5692;1.19734
0.0149792500000000;45.5846;1.19834
0.0149917500000000;45.6;1.19934
0.0150042500000000;45.6155;1.20034
0.0150167500000000;45.6309;1.20134
0.0150292500000000;45.6463;1.20234
0.0150417500000000;45.6618;1.20334
0.0150542500000000;45.6772;1.20434
0.0150667500000000;45.6926;1.20534
0.0150792500000000;45.7081;1.20634
0.0150917500000000;45.7235;1.20734
0.0151042500000000;45.7389;1.20834
0.0151167500000000;45.7544;1.20934
0.0151292500000000;45.7698;1.21034
0.0151417500000000;45.7852;1.21134
0.0151542500000000;45.8006;1.21234
0.0151667500000000;45.8161;1.21334
0.0151792500000000;45.8315;1.21434
0.0151917500000000;45.8469;1.21534
0.0152042500000000;45.8624;1.21634
0.0152167500000000;45.8778;1.21734
0.0152292500000000;45.8932;1.21834
0.0152417500000000;45.9087;1.21934
0.0152542500000000;45.9241;1.22034
0.0152667500000000;45.9395;1.22134
0.0152792500000000;45.955;1.22234
0.0152917500000000;45.9704;1.22334
0.0153042500000000;45.9858;1.22434
0.0153167500000000;46.0013;1.22534
0.0153292500000000;46.0167;1.22634
0.0153417500000000;46.0321;1.22734
0.0153542500000000;46.0475;1.22834
0.0153667500000000;46.063;1.22934
0.0153792500000000;46.0784;1.23034
0.0153917500000000;46.0938;1.23134
0.0154042500000000;46.1093;1.23234
0.0154167500000000;46.1247;1.23334
0.0154292500000000;46.1401;1.23434
0.0154417500000000;46.1556;1.23534
0.0154542500000000;46.171;1.23634
0.0154667500000000;46.1864;1.23734
0.0154792500000000;46.2019;1.23834
0.0154917500000000;46.2173;1.23934
0.0155042500000000;46.2327;1.24034
0.0155167500000000;46.2482;1.24134
0.0155292500000000;46.262;1.24234
0.0155417500000000;46.262;1.24334
0.0155542500000000;46.262;1.24434
0.0155667500000000;46.262;1.24534
0.0155792500000000;46.262;1.24634
0.0155917500000000;46.262;1.24734
0.0156042500000000;46.262;1.24834
0.0156167500000000;46.262;1.24934
0.0156292500000000;46.262;1.25034
0.0156417500000000;46.262;1.25134
0.0156542500000000;46.262;1.25234
0.0156667500000000;46.262;1.25334
0.0156792500000000;46.262;1.25434
0.0156917500000000;46.262;1.25534
0.0157042500000000;46.262;1.25634
0.0157167500000000;46.262;1.25734
0.0157292500000000;46.262;1.25834
0.0157417500000000;46.262;1.25934
0.0157542500000000;46.262;1.26034
0.0157667500000000;46.262;1.26134
0.0157792500000000;46.262;1.26234
0.0157917500000000;46.262;1.26334
0.0158042500000000;46.262;1.26434
0.0158167500000000;46.262;1.26534
0.0158292500000000;46.262;1.26634
0.0158417500000000;46.262;1.26734
0.0158542500000000;46.262;1.26834
0.0158667500000000;46.262;1.26934
0.0158792500000000;46.262;1.27034
0.0158917500000000;46.262;1.27134
0.0159042500000000;46.262;1.27234
0.0159167500000000;46.262;1.27334
0.0159292500000000;46.262;1.27434
0.0159417500000000;46.262;1.27534
0.0159542500000000;46.262;1.27634
0.0159667500000000;46.262;1.27734
0.0159792500000000;46.262;1.27834
0.0159917500000000;46.262;1.27934
0.0160042500000000;46.262;1.28034
0.0160167500000000;46.262;1.28134
0.0160292500000000;46.262;1.28234
0.0160417500000000;46.262;1.28334
0.0160542500000000;46.262;1.28434
0.0160667500000000;46.262;1.28534
0.0160792500000000;46.262;1.28634
0.0160917500000000;46.262;1.28734
0.0161042500000000;46.262;1.28834
0.0161167500000000;46.262;1.28934
0.0161292500000000;46.262;1.29034
0.0161417500000000;46.262;1.29134
0.0161542500000000;46.262;1.29234
0.0161667500000000;46.262;1.29334
0.0161792500000000;46.262;1.29434
0.0161917500000000;46.262;1.29534
0.0162042500000000;46.262;1.29634
0.0162167500000000;46.262;1.29734
0.0162292500000000;46.262;1.29834
0.0162417500000000;46.262;1.29934
0.0162542500000000;46.262;1.30034
0.0162667500000000;46.262;1.30134
0.0162792500000000;46.262;1.30234
0.0162917500000000;46.262;1.30334
0.0163042500000000;46.262;1.30434
0.0163167500000000;46.262;1.30534
0.0163292500000000;46.262;1.30634
0.0163417500000000;46.262;1.30734
0.0163542500000000;46.262;1.30834
0.0163667500000000;46.262;1.30934
0.0163792500000000;46.262;1.31034
0.0163917500000000;46.262;1.31134
0.0164042500000000;46.262;1.31234
0.0164167500000000;46.262;1.31334
0.0164292500000000;46.262;1.31434
0.0164417500000000;46.262;1.31534
0.0164542500000000;46.262;1.31634
0.0164667500000000;46.262;1.31734
0.0164792500000000;46.262;1.31834
0.0164917500000000;46.262;1.31934
0.0165042500000000;46.262;1.32034
0.0165167500000000;46.262;1.32134
0.0165292500000000;46.262;1.32234
0.0165417500000000;46.262;1.32334
0.0165542500000000;46.262;1.32434
0.0165667500000000;46.262;1.32534
0.0165792500000000;46.262;1.32634
0.0165917500000000;46.262;1.32734
0.0166042500000000;46.262;1.32834
0.0166167500000000;46.262;1.32934
0.0166292500000000;46.262;1.33034
0.0166417500000000;46.262;1.33134
0.0166542500000000;46.262;1.33234
0.0166667500000000;46.262;1.33334
0.0166792500000000;46.262;1.33434
0.0166917500000000;46.262;1.33534
0.0167042500000000;46.262;1.33634
0.0167167500000000;46.262;1.33734
0.0167292500000000;46.262;1.33834
0.0167417500000000;46.262;1.33934
0.0167542500000000;46.262;1.34034
0.0167667500000000;46.262;1.34134
0.0167792500000000;46.262;1.34234
0.0167917500000000;46.262;1.34334
0.0168042500000000;46.262;1.34434
0.0168167500000000;46.262;1.34534
0.0168292500000000;46.262;1.34634
0.0168417500000000;46.262;1.34734
0.0168542500000000;46.262;1.34834
0.0168667500000000;46.262;1.34934
0.0168792500000000;46.262;1.35034
0.0168917500000000;46.262;1.35134
0.0169042500000000;46.262;1.35234
0.0169167500000000;46.262;1.35334
0.0169292500000000;46.262;1.35434
0.0169417500000000;46.262;1.35534
0.0169542500000000;46.262;1.35634
0.0169667500000000;46.262;1.35734
0.0169792500000000;46.262;1.35834
0.0169917500000000;46.262;1.35934
0.0170042500000000;46.262;1.36034
0.0170167500000000;46.262;1.36134
0.0170292500000000;46.262;1.36234
0.0170417500000000;46.262;1.36334
0.0170542500000000;46.262;1.36434
0.0170667500000000;46.262;1.36534
0.0170792500000000;46.262;1.36634
0.0170917500000000;46.262;1.36734
0.0171042500000000;46.262;1.36834
0.0171167500000000;46.262;1.36934
0.0171292500000000;46.262;1.37034
0.0171417500000000;46.262;1.37134
0.0171542500000000;46.262;1.37234
0.0171667500000000;46.262;1.37334
0.0171792500000000;46.262;1.37434
0.0171917500000000;46.262;1.37534
0.0172042500000000;46.262;1.37634
0.0172167500000000;46.262;1.37734
0.0172292500000000;46.262;1.37834
0.0172417500000000;46.262;1.37934
0.0172542500000000;46.262;1.38034
0.0172667500000000;46.262;1.38134
0.0172792500000000;46.262;1.38234
0.0172917500000000;46.262;1.38334
0.0173042500000000;46.262;1.38434
0.0173167500000000;46.262;1.38534
0.0173292500000000;46.262;1.38634
0.0173417500000000;46.262;1.38734
0.0173542500000000;46.262;1.38834
0.0173667500000000;46.262;1.38934
0.0173792500000000;46.262;1.39034
0.0173917500000000;46.262;1.39134
0.0174042500000000;46.262;1.39234
0.0174167500000000;46.262;1.39334
0.0174292500000000;46.262;1.39434
0.0174417500000000;46.262;1.39534
0.0174542500000000;46.262;1.39634
0.0174667500000000;46.262;1.39734
0.0174792500000000;46.262;1.39834
0.0174917500000000;46.262;1.39934
0.0175042500000000;46.262;1.40034
0.0175167500000000;46.262;1.40134
0.0175292500000000;46.262;1.40234
0.0175417500000000;46.262;1.40334
0.0175542500000000;46.262;1.40434
0.0175667500000000;46.262;1.40534
0.0175792500000000;46.262;1.40634
0.0175917500000000;46.262;1.40734
0.0176042500000000;46.262;1.40834
0.0176167500000000;46.262;1.40934
0.0176292500000000;46.262;1.41034
0.0176417500000000;46.262;1.41134
0.0176542500000000;46.262;1.41234
0.0176667500000000;46.262;1.41334
0.0176792500000000;46.262;1.41434
0.0176917500000000;46.262;1.41534
0.0177042500000000;46.262;1.41634
0.0177167500000000;46.262;1.41734
0.0177292500000000;46.262;1.41834
0.0177417500000000;46.262;1.41934
0.0177542500000000;46.262;1.42034
0.0177667500000000;46.262;1.42134
0.0177792500000000;46.262;1.42234
0.0177917500000000;46.262;1.42334
0.0178042500000000;46.262;1.42434
0.0178167500000000;46.262;1.42534
0.0178292500000000;46.262;1.42634
0.0178417500000000;46.262;1.42734
0.0178542500000000;46.262;1.42834
0.0178667500000000;46.262;1.42934
0.0178792500000000;46.262;1.43034
0.0178917500000000;46.262;1.43134
0.0179042500000000;46.262;1.43234
0.0179167500000000;46.262;1.43334
0.0179292500000000;46.262;1.43434
0.0179417500000000;46.262;1.43534
0.0179542500000000;46.262;1.43634
0.0179667500000000;46.262;1.43734
0.0179792500000000;46.262;1.43834
0.0179917500000000;46.262;1.43934
0.0180042500000000;46.262;1.44034
0.0180167500000000;46.262;1.44134
0.0180292500000000;46.262;1.44234
0.0180417500000000;46.262;1.44334
0.0180542500000000;46.262;1.44434
0.0180667500000000;46.262;1.44534
0.0180792500000000;46.262;1.44634
0.0180917500000000;46.262;1.44734
0.0181042500000000;46.262;1.44834
0.0181167500000000;46.262;1.44934
0.0181292500000000;46.262;1.45034
0.0181417500000000;46.262;1.45134
0.0181542500000000;46.262;1.45234
0.0181667500000000;46.262;1.45334
0.0181792500000000;46.262;1.45434
0.0181917500000000;46.262;1.45534
0.0182042500000000;46.262;1.45634
0.0182167500000000;46.262;1.45734
0.0182292500000000;46.262;1.45834
0.0182417500000000;46.262;1.45934
0.0182542500000000;46.262;1.46034
0.0182667500000000;46.262;1.46134
0.0182792500000000;46.262;1.46234
0.0182917500000000;46.262;1.46334
0.0183042500000000;46.262;1.46434
0.0183167500000000;46.262;1.46534
0.0183292500000000;46.262;1.46634
0.0183417500000000;46.262;1.46734
0.0183542500000000;46.262;1.46834
0.0183667500000000;46.262;1.46934
0.0183792500000000;46.262;1.47034
0.0183917500000000;46.262;1.47134
0.0184042500000000;46.262;1.47234
0.0184167500000000;46.262;1.47334
0.0184292500000000;46.262;1.47434
0.0184417500000000;46.262;1.47534
0.0184542500000000;46.262;1.47634
0.0184667500000000;46.262;1.47734
0.0184792500000000;46.262;1.47834
0.0184917500000000;46.262;1.47934
0.0185042500000000;46.262;1.48034
0.0185167500000000;46.262;1.48134
0.0185292500000000;46.262;1.48234
0.0185417500000000;46.262;1.48334
0.0185542500000000;46.262;1.48434
0.0185667500000000;46.262;1.48534
0.0185792500000000;46.262;1.48634
0.0185917500000000;46.262;1.48734
0.0186042500000000;46.262;1.48834
0.0186167500000000;46.262;1.48934
0.0186292500000000;46.262;1.49034
0.0186417500000000;46.262;1.49134
0.0186542500000000;46.262;1.49234
0.0186667500000000;46.262;1.49334
0.0186792500000000;46.262;1.49434
0.0186917500000000;46.262;1.49534
0.0187042500000000;46.262;1.49634
0.0187167500000000;46.262;1.49734
0.0187292500000000;46.262;1.49834
0.0187417500000000;46.262;1.49934
0.0187542500000000;46.262;1.50034
0.0187667500000000;46.262;1.50134
0.0187792500000000;46.262;1.50234
0.0187917500000000;46.262;1.50334
0.0188042500000000;46.262;1.50434
0.0188167500000000;46.262;1.50534
0.0188292500000000;46.262;1.50634
0.0188417500000000;46.262;1.50734
0.0188542500000000;46.262;1.50834
0.0188667500000000;46.262;1.50934
0.0188792500000000;46.262;1.51034
0.0188917500000000;46.262;1.51134
0.0189042500000000;46.262;1.51234
0.0189167500000000;46.262;1.51334
0.0189292500000000;46.262;1.51434
0.0189417500000000;46.262;1.51534
0.0189542500000000;46.262;1.51634
0.0189667500000000;46.262;1.51734
0.0189792500000000;46.262;1.51834
0.0189917500000000;46.262;1.51934
0.0190042500000000;46.262;1.52034
0.0190167500000000;46.262;1.52134
0.0190292500000000;46.262;1.52234
0.0190417500000000;46.262;1.52334
0.0190542500000000;46.262;1.52434
0.0190667500000000;46.262;1.52534
0.0190792500000000;46.262;1.52634
0.0190917500000000;46.262;1.52734
0.0191042500000000;46.262;1.52834
0.0191167500000000;46.262;1.52934
0.0191292500000000;46.262;1.53034
0.0191417500000000;46.262;1.53134
0.0191542500000000;46.262;1.53234
0.0191667500000000;46.262;1.53334
0.0191792500000000;46.262;1.53434
0.0191917500000000;46.262;1.53534
0.0192042500000000;46.262;1.53634
0.0192167500000000;46.262;1.53734
0.0192292500000000;46.262;1.53834
0.0192417500000000;46.262;1.53934
0.0192542500000000;46.262;1.54034
0.0192667500000000;46.2769;1.54134
0.0192792500000000;46.2923;1.54234
0.0192917500000000;46.3078;1.54334
0.0193042500000000;46.3232;1.54434
0.0193167500000000;46.3386;1.54534
0.0193292500000000;46.3541;1.54634
0.0193417500000000;46.3695;1.54734
0.0193542500000000;46.3849;1.54834
0.0193667500000000;46.4004;1.54934
0.0193792500000000;46.4158;1.55034
0.0193917500000000;46.4312;1.55134
0.0194042500000000;46.4467;1.55234
0.0194167500000000;46.4621;1.55334
0.0194292500000000;46.4775;1.55434
0.0194417500000000;46.4929;1.55534
0.0194542500000000;46.5084;1.55634
0.0194667500000000;46.5238;1.55734
0.0194792500000000;46.5392;1.55834
0.0194917500000000;46.5547;1.55934
0.0195042500000000;46.5701;1.56034
0.0195167500000000;46.5855;1.56134
0.0195292500000000;46.601;1.56234
0.0195417500000000;46.6164;1.56334
0.0195542500000000;46.6318;1.56434
0.0195667500000000;46.6473;1.56534
0.0195792500000000;46.6627;1.56634
0.0195917500000000;46.6781;1.56734
0.0196042500000000;46.6936;1.56834
0.0196167500000000;46.709;1.56934
0.0196292500000000;46.7244;1.57034
0.0196417500000000;46.7398;1.57134
0.0196542500000000;46.7553;1.57234
0.0196667500000000;46.7707;1.57334
0.0196792500000000;46.7732;1.57434
0.0196917500000000;46.7732;1.57534
0.0197042500000000;46.7732;1.57634
0.0197167500000000;46.7732;1.57734
0.0197292500000000;46.7732;1.57834
0.0197417500000000;46.7732;1.57934
0.0197542500000000;46.7732;1.58034
0.0197667500000000;46.7732;1.58134
0.0197792500000000;46.7732;1.58234
0.0197917500000000;46.7732;1.58334
0.0198042500000000;46.7732;1.58434
0.0198167500000000;46.7732;1.58534
0.0198292500000000;46.7732;1.58634
0.0198417500000000;46.7732;1.58734
0.0198542500000000;46.7732;1.58834
0.0198667500000000;46.7732;1.58934
0.0198792500000000;46.7732;1.59034
0.0198917500000000;46.7732;1.59134
0.0199042500000000;46.7732;1.59234
0.0199167500000000;46.7732;1.59334
0.0199292500000000;46.7732;1.59434
0.0199417500000000;46.7732;1.59534
0.0199542500000000;46.7732;1.59634
0.0199667500000000;46.7732;1.59734
0.0199792500000000;46.7732;1.59834
0.0199917500000000;46.7732;1.59934
0.0200042500000000;46.7732;1.60034
0.0200167500000000;46.7732;1.60134
0.0200292500000000;46.7732;1.60234
0.0200417500000000;46.7732;1.60334
0.0200542500000000;46.7732;1.60434
0.0200667500000000;46.7732;1.60534
0.0200792500000000;46.7732;1.60634
0.0200917500000000;46.7732;1.60734
0.0201042500000000;46.7732;1.60834
0.0201167500000000;46.7732;1.60934
0.0201292500000000;46.7732;1.61034
0.0201417500000000;46.7732;1.61134
0.0201542500000000;46.7732;1.61234
0.0201667500000000;46.7732;1.61334
0.0201792500000000;46.7732;1.61434
0.0201917500000000;46.7732;1.61534
0.0202042500000000;46.7732;1.61634
0.0202167500000000;46.7732;1.61734
0.0202292500000000;46.7732;1.61834
0.0202417500000000;46.7732;1.61934
0.0202542500000000;46.7732;1.62034
0.0202667500000000;46.7732;1.62134
0.0202792500000000;46.7732;1.62234
0.0202917500000000;46.7732;1.62334
0.0203042500000000;46.7732;1.62434
0.0203167500000000;46.7732;1.62534
0.0203292500000000;46.7732;1.62634
0.0203417500000000;46.7732;1.62734
0.0203542500000000;46.7732;1.62834
0.0203667500000000;46.7732;1.62934
0.0203792500000000;46.7732;1.63034
0.0203917500000000;46.7732;1.63134
0.0204042500000000;46.7732;1.63234
0.0204167500000000;46.7732;1.63334
0.0204292500000000;46.7732;1.63434
0.0204417500000000;46.7732;1.63534
0.0204542500000000;46.7732;1.63634
0.0204667500000000;46.7732;1.63734
0.0204792500000000;46.7732;1.63834
0.0204917500000000;46.7732;1.63934
0.0205042500000000;46.7732;1.64034
0.0205167500000000;46.7732;1.64134
0.0205292500000000;46.7732;1.64234
0.0205417500000000;46.7732;1.64334
0.0205542500000000;46.7732;1.64434
0.0205667500000000;46.7732;1.64534
0.0205792500000000;46.7732;1.64634
0.0205917500000000;46.7732;1.64734
0.0206042500000000;46.7732;1.64834
0.0206167500000000;46.7732;1.64934
0.0206292500000000;46.7732;1.65034
0.0206417500000000;46.7732;1.65134
0.0206542500000000;46.7732;1.65234
0.0206667500000000;46.7732;1.65334
0.0206792500000000;46.7732;1.65434
0.0206917500000000;46.7732;1.65534
0.0207042500000000;46.7732;1.65634
0.0207167500000000;46.7732;1.65734
0.0207292500000000;46.7732;1.65834
0.0207417500000000;46.7732;1.65934
0.0207542500000000;46.7732;1.66034
0.0207667500000000;46.7732;1.66134
0.0207792500000000;46.7732;1.66234
0.0207917500000000;46.7732;1.66334
0.0208042500000000;46.7732;1.66434
0.0208167500000000;46.7732;1.66534
0.0208292500000000;46.7732;1.66634
0.0208417500000000;46.7732;1.66734
0.0208542500000000;46.7732;1.66834
0.0208667500000000;46.7732;1.66934
0.0208792500000000;46.7732;1.67034
0.0208917500000000;46.7732;1.67134
0.0209042500000000;46.7732;1.67234
0.0209167500000000;46.7732;1.67334
0.0209292500000000;46.7732;1.67434
0.0209417500000000;46.7732;1.67534
0.0209542500000000;46.7732;1.67634
0.0209667500000000;46.7732;1.67734
0.0209792500000000;46.7732;1.67834
0.0209917500000000;46.7732;1.67934
0.0210042500000000;46.7732;1.68034
0.0210167500000000;46.7732;1.68134
0.0210292500000000;46.7732;1.68234
0.0210417500000000;46.7732;1.68334
0.0210542500000000;46.7732;1.68434
0.0210667500000000;46.7732;1.68534
0.0210792500000000;46.7732;1.68634
0.0210917500000000;46.7732;1.68734
0.0211042500000000;46.7732;1.68834
0.0211167500000000;46.7732;1.68934
0.0211292500000000;46.7732;1.69034
0.0211417500000000;46.7732;1.69134
0.0211542500000000;46.7732;1.69234
0.0211667500000000;46.7732;1.69334
0.0211792500000000;46.7732;1.69434
0.0211917500000000;46.7732;1.69534
0.0212042500000000;46.7732;1.69634
0.0212167500000000;46.7732;1.69734
0.0212292500000000;46.7732;1.69834
0.0212417500000000;46.7732;1.69934
0.0212542500000000;46.7732;1.70034
0.0212667500000000;46.7732;1.70134
0.0212792500000000;46.7732;1.70234
0.0212917500000000;46.7732;1.70334
0.0213042500000000;46.7732;1.70434
0.0213167500000000;46.7732;1.70534
0.0213292500000000;46.7732;1.70634
0.0213417500000000;46.7732;1.70734
0.0213542500000000;46.7732;1.70834
0.0213667500000000;46.7732;1.70934
0.0213792500000000;46.7732;1.71034
0.0213917500000000;46.7732;1.71134
0.0214042500000000;46.7732;1.71234
0.0214167500000000;46.7732;1.71334
0.0214292500000000;46.7732;1.71434
0.0214417500000000;46.7732;1.71534
0.0214542500000000;46.7732;1.71634
0.0214667500000000;46.7732;1.71734
0.0214792500000000;46.7732;1.71834
0.0214917500000000;46.7732;1.71934
0.0215042500000000;46.7732;1.72034
0.0215167500000000;46.7732;1.72134
0.0215292500000000;46.7732;1.72234
0.0215417500000000;46.7732;1.72334
0.0215542500000000;46.7732;1.72434
0.0215667500000000;46.7732;1.72534
0.0215792500000000;46.7732;1.72634
0.0215917500000000;46.7732;1.72734
0.0216042500000000;46.7732;1.72834
0.0216167500000000;46.7732;1.72934
0.0216292500000000;46.7732;1.73034
0.0216417500000000;46.7732;1.73134
0.0216542500000000;46.7732;1.73234
0.0216667500000000;46.7732;1.73334
0.0216792500000000;46.7732;1.73434
0.0216917500000000;46.7732;1.73534
0.0217042500000000;46.7732;1.73634
0.0217167500000000;46.7732;1.73734
0.0217292500000000;46.7732;1.73834
0.0217417500000000;46.7732;1.73934
0.0217542500000000;46.7732;1.74034
0.0217667500000000;46.7732;1.74134
0.0217792500000000;46.7732;1.74234
0.0217917500000000;46.7732;1.74334
0.0218042500000000;46.7732;1.74434
0.0218167500000000;46.7732;1.74534
0.0218292500000000;46.7732;1.74634
0.0218417500000000;46.7732;1.74734
0.0218542500000000;46.7732;1.74834
0.0218667500000000;46.7732;1.74934
0.0218792500000000;46.7732;1.75034
0.0218917500000000;46.7732;1.75134
0.0219042500000000;46.7732;1.75234
0.0219167500000000;46.7732;1.75334
0.0219292500000000;46.7732;1.75434
0.0219417500000000;46.7732;1.75534
0.0219542500000000;46.7732;1.75634
0.0219667500000000;46.7732;1.75734
0.0219792500000000;46.7732;1.75834
0.0219917500000000;46.7732;1.75934
0.0220042500000000;46.7732;1.76034
0.0220167500000000;46.7732;1.76134
0.0220292500000000;46.7732;1.76234
0.0220417500000000;46.7732;1.76334
0.0220542500000000;46.7732;1.76434
0.0220667500000000;46.7732;1.76534
0.0220792500000000;46.7732;1.76634
0.0220917500000000;46.7732;1.76734
0.0221042500000000;46.7732;1.76834
0.0221167500000000;46.7732;1.76934
0.0221292500000000;46.7732;1.77034
0.0221417500000000;46.7732;1.77134
0.0221542500000000;46.7732;1.77234
0.0221667500000000;46.7732;1.77334
0.0221792500000000;46.7732;1.77434
0.0221917500000000;46.7732;1.77534
0.0222042500000000;46.7732;1.77634
0.0222167500000000;46.7732;1.77734
0.0222292500000000;46.7732;1.77834
0.0222417500000000;46.7732;1.77934
0.0222542500000000;46.7732;1.78034
0.0222667500000000;46.7732;1.78134
0.0222792500000000;46.7732;1.78234
0.0222917500000000;46.7732;1.78334
0.0223042500000000;46.7732;1.78434
0.0223167500000000;46.7732;1.78534
0.0223292500000000;46.7732;1.78634
0.0223417500000000;46.7732;1.78734
0.0223542500000000;46.7732;1.78834
0.0223667500000000;46.7732;1.78934
0.0223792500000000;46.7732;1.79034
0.0223917500000000;46.7732;1.79134
0.0224042500000000;46.7732;1.79234
0.0224167500000000;46.7732;1.79334
0.0224292500000000;46.7732;1.79434
0.0224417500000000;46.7732;1.79534
0.0224542500000000;46.7732;1.79634
0.0224667500000000;46.7732;1.79734
0.0224792500000000;46.7732;1.79834
0.0224917500000000;46.7732;1.79934
0.0225042500000000;46.7732;1.80034
0.0225167500000000;46.7732;1.80134
0.0225292500000000;46.7732;1.80234
0.0225417500000000;46.7732;1.80334
0.0225542500000000;46.7732;1.80434
0.0225667500000000;46.7732;1.80534
0.0225792500000000;46.7732;1.80634
0.0225917500000000;46.7732;1.80734
0.0226042500000000;46.7732;1.80834
0.0226167500000000;46.7732;1.80934
0.0226292500000000;46.7732;1.81034
0.0226417500000000;46.7732;1.81134
0.0226542500000000;46.7732;1.81234
0.0226667500000000;46.7732;1.81334
0.0226792500000000;46.7732;1.81434
0.0226917500000000;46.7732;1.81534
0.0227042500000000;46.7732;1.81634
0.0227167500000000;46.7732;1.81734
0.0227292500000000;46.7732;1.81834
0.0227417500000000;46.7732;1.81934
0.0227542500000000;46.7732;1.82034
0.0227667500000000;46.7732;1.82134
0.0227792500000000;46.7732;1.82234
0.0227917500000000;46.7732;1.82334
0.0228042500000000;46.7732;1.82434
0.0228167500000000;46.7732;1.82534
0.0228292500000000;46.7732;1.82634
0.0228417500000000;46.7732;1.82734
0.0228542500000000;46.7732;1.82834
0.0228667500000000;46.7732;1.82934
0.0228792500000000;46.7732;1.83034
0.0228917500000000;46.7732;1.83134
0.0229042500000000;46.7732;1.83234
0.0229167500000000;46.7732;1.83334
0.0229292500000000;46.7732;1.83434
0.0229417500000000;46.7732;1.83534
0.0229542500000000;46.7732;1.83634
0.0229667500000000;46.7732;1.83734
0.0229792500000000;46.7732;1.83834
0.0229917500000000;46.7732;1.83934
0.0230042500000000;46.7732;1.84034
0.0230167500000000;46.7732;1.84134
0.0230292500000000;46.7732;1.84234
0.0230417500000000;46.7732;1.84334
0.0230542500000000;46.7732;1.84434
0.0230667500000000;46.7732;1.84534
0.0230792500000000;46.7732;1.84634
0.0230917500000000;46.7732;1.84734
0.0231042500000000;46.7732;1.84834
0.0231167500000000;46.7732;1.84934
0.0231292500000000;46.7732;1.85034
0.0231417500000000;46.7732;1.85134
0.0231542500000000;46.7732;1.85234
0.0231667500000000;46.7732;1.85334
0.0231792500000000;46.7732;1.85434
0.0231917500000000;46.7732;1.85534
0.0232042500000000;46.7732;1.85634
0.0232167500000000;46.7732;1.85734
0.0232292500000000;46.7732;1.85834
0.0232417500000000;46.7732;1.85934
0.0232542500000000;46.7732;1.86034
0.0232667500000000;46.7732;1.86134
0.0232792500000000;46.7732;1.86234
0.0232917500000000;46.7732;1.86334
0.0233042500000000;46.7732;1.86434
0.0233167500000000;46.7732;1.86534
0.0233292500000000;46.7732;1.86634
0.0233417500000000;46.7732;1.86734
0.0233542500000000;46.7732;1.86834
0.0233667500000000;46.7732;1.86934
0.0233792500000000;46.7732;1.87034
0.0233917500000000;46.7732;1.87134
0.0234042500000000;46.784;1.87234
0.0234167500000000;46.7995;1.87334
0.0234292500000000;46.8149;1.87434
0.0234417500000000;46.8303;1.87534
0.0234542500000000;46.8458;1.87634
0.0234667500000000;46.8612;1.87734
0.0234792500000000;46.8766;1.87834
0.0234917500000000;46.8921;1.87934
0.0235042500000000;46.9075;1.88034
0.0235167500000000;46.9229;1.88134
0.0235292500000000;46.9383;1.88234
0.0235417500000000;46.9538;1.88334
0.0235542500000000;46.9692;1.88434
0.0235667500000000;46.9846;1.88534
0.0235792500000000;47.0001;1.88634
0.0235917500000000;47.0155;1.88734
0.0236042500000000;47.0309;1.88834
0.0236167500000000;47.0464;1.88934
0.0236292500000000;47.0618;1.89034
0.0236417500000000;47.0772;1.89134
0.0236542500000000;47.0927;1.89234
0.0236667500000000;47.1081;1.89334
0.0236792500000000;47.1235;1.89434
0.0236917500000000;47.139;1.89534
0.0237042500000000;47.1544;1.89634
0.0237167500000000;47.1698;1.89734
0.0237292500000000;47.1852;1.89834
0.0237417500000000;47.2007;1.89934
0.0237542500000000;47.2161;1.90034
0.0237667500000000;47.2315;1.90134
0.0237792500000000;47.247;1.90234
0.0237917500000000;47.2624;1.90334
0.0238042500000000;47.2778;1.90434
0.0238167500000000;47.2843;1.90534
0.0238292500000000;47.2843;1.90634
0.0238417500000000;47.2843;1.90734
0.0238542500000000;47.2843;1.90834
0.0238667500000000;47.2843;1.90934
0.0238792500000000;47.2843;1.91034
0.0238917500000000;47.2843;1.91134
0.0239042500000000;47.2843;1.91234
0.0239167500000000;47.2843;1.91334
0.0239292500000000;47.2843;1.91434
0.0239417500000000;47.2843;1.91534
0.0239542500000000;47.2843;1.91634
0.0239667500000000;47.2843;1.91734
0.0239792500000000;47.2843;1.91834
0.0239917500000000;47.2843;1.91934
0.0240042500000000;47.2843;1.92034
0.0240167500000000;47.2843;1.92134
0.0240292500000000;47.2843;1.92234
0.0240417500000000;47.2843;1.92334
0.0240542500000000;47.2843;1.92434
0.0240667500000000;47.2843;1.92534
0.0240792500000000;47.2843;1.92634
0.0240917500000000;47.2843;1.92734
0.0241042500000000;47.2843;1.92834
0.0241167500000000;47.2843;1.92934
0.0241292500000000;47.2843;1.93034
0.0241417500000000;47.2843;1.93134
0.0241542500000000;47.2843;1.93234
0.0241667500000000;47.2843;1.93334
0.0241792500000000;47.2843;1.93434
0.0241917500000000;47.2843;1.93534
0.0242042500000000;47.2843;1.93634
0.0242167500000000;47.2843;1.93734
0.0242292500000000;47.2843;1.93834
0.0242417500000000;47.2843;1.93934
0.0242542500000000;47.2843;1.94034
0.0242667500000000;47.2843;1.94134
0.0242792500000000;47.2843;1.94234
0.0242917500000000;47.2843;1.94334
0.0243042500000000;47.2843;1.94434
0.0243167500000000;47.2843;1.94534
0.0243292500000000;47.2843;1.94634
0.0243417500000000;47.2843;1.94734
0.0243542500000000;47.2843;1.94834
0.0243667500000000;47.2843;1.94934
0.0243792500000000;47.2843;1.95034
0.0243917500000000;47.2843;1.95134
0.0244042500000000;47.2843;1.95234
0.0244167500000000;47.2843;1.95334
0.0244292500000000;47.2843;1.95434
0.0244417500000000;47.2843;1.95534
0.0244542500000000;47.2843;1.95634
0.0244667500000000;47.2843;1.95734
0.0244792500000000;47.2843;1.95834
0.0244917500000000;47.2843;1.95934
0.0245042500000000;47.2843;1.96034
0.0245167500000000;47.2843;1.96134
0.0245292500000000;47.2843;1.96234
0.0245417500000000;47.2843;1.96334
0.0245542500000000;47.2843;1.96434
0.0245667500000000;47.2843;1.96534
0.0245792500000000;47.2843;1.96634
0.0245917500000000;47.2843;1.96734
0.0246042500000000;47.2843;1.96834
0.0246167500000000;47.2843;1.96934
0.0246292500000000;47.2843;1.97034
0.0246417500000000;47.2843;1.97134
0.0246542500000000;47.2843;1.97234
0.0246667500000000;47.2843;1.97334
0.0246792500000000;47.2843;1.97434
0.0246917500000000;47.2843;1.97534
0.0247042500000000;47.2843;1.97634
0.0247167500000000;47.2843;1.97734
0.0247292500000000;47.2843;1.97834
0.0247417500000000;47.2843;1.97934
0.0247542500000000;47.2843;1.98034
0.0247667500000000;47.2843;1.98134
0.0247792500000000;47.2843;1.98234
0.0247917500000000;47.2843;1.98334
0.0248042500000000;47.2843;1.98434
0.0248167500000000;47.2843;1.98534
0.0248292500000000;47.2843;1.98634
0.0248417500000000;47.2843;1.98734
0.0248542500000000;47.2843;1.98834
0.0248667500000000;47.2843;1.98934
0.0248792500000000;47.2843;1.99034
0.0248917500000000;47.2843;1.99134
0.0249042500000000;47.2843;1.99234
0.0249167500000000;47.2843;1.99334
0.0249292500000000;47.2843;1.99434
0.0249417500000000;47.2843;1.99534
0.0249542500000000;47.2843;1.99634
0.0249667500000000;47.2843;1.99734
0.0249792500000000;47.2843;1.99834
0.0249917500000000;47.2843;1.99934
0.0250042500000000;47.2843;2.00034
0.0250167500000000;47.2843;2.00134
0.0250292500000000;47.2843;2.00234
0.0250417500000000;47.2843;2.00334
0.0250542500000000;47.2843;2.00434
0.0250667500000000;47.2843;2.00534
0.0250792500000000;47.2843;2.00634
0.0250917500000000;47.2843;2.00734
0.0251042500000000;47.2843;2.00834
0.0251167500000000;47.2843;2.00934
0.0251292500000000;47.2843;2.01034
0.0251417500000000;47.2843;2.01134
0.0251542500000000;47.2843;2.01234
0.0251667500000000;47.2843;2.01334
0.0251792500000000;47.2843;2.01434
0.0251917500000000;47.2843;2.01534
0.0252042500000000;47.2843;2.01634
0.0252167500000000;47.2843;2.01734
0.0252292500000000;47.2843;2.01834
0.0252417500000000;47.2843;2.01934
0.0252542500000000;47.2843;2.02034
0.0252667500000000;47.2843;2.02134
0.0252792500000000;47.2843;2.02234
0.0252917500000000;47.2843;2.02334
0.0253042500000000;47.2843;2.02434
0.0253167500000000;47.2843;2.02534
0.0253292500000000;47.2843;2.02634
0.0253417500000000;47.2843;2.02734
0.0253542500000000;47.2843;2.02834
0.0253667500000000;47.2843;2.02934
0.0253792500000000;47.2843;2.03034
0.0253917500000000;47.2843;2.03134
0.0254042500000000;47.2843;2.03234
0.0254167500000000;47.2843;2.03334
0.0254292500000000;47.2843;2.03434
0.0254417500000000;47.2843;2.03534
0.0254542500000000;47.2843;2.03634
0.0254667500000000;47.2843;2.03734
0.0254792500000000;47.2843;2.03834
0.0254917500000000;47.2843;2.03934
0.0255042500000000;47.2843;2.04034
0.0255167500000000;47.2843;2.04134
0.0255292500000000;47.2843;2.04234
0.0255417500000000;47.2843;2.04334
0.0255542500000000;47.2843;2.04434
0.0255667500000000;47.2843;2.04534
0.0255792500000000;47.2843;2.04634
0.0255917500000000;47.2843;2.04734
0.0256042500000000;47.2843;2.04834
0.0256167500000000;47.2843;2.04934
0.0256292500000000;47.2843;2.05034
0.0256417500000000;47.2843;2.05134
0.0256542500000000;47.2843;2.05234
0.0256667500000000;47.2843;2.05334
0.0256792500000000;47.2843;2.05434
0.0256917500000000;47.2843;2.05534
0.0257042500000000;47.2843;2.05634
0.0257167500000000;47.2843;2.05734
0.0257292500000000;47.2843;2.05834
0.0257417500000000;47.2843;2.05934
0.0257542500000000;47.2843;2.06034
0.0257667500000000;47.2843;2.06134
0.0257792500000000;47.2843;2.06234
0.0257917500000000;47.2843;2.06334
0.0258042500000000;47.2843;2.06434
0.0258167500000000;47.2843;2.06534
0.0258292500000000;47.2843;2.06634
0.0258417500000000;47.2843;2.06734
0.0258542500000000;47.2843;2.06834
0.0258667500000000;47.2843;2.06934
0.0258792500000000;47.2843;2.07034
0.0258917500000000;47.2843;2.07134
0.0259042500000000;47.2843;2.07234
0.0259167500000000;47.2843;2.07334
0.0259292500000000;47.2843;2.07434
0.0259417500000000;47.2843;2.07534
0.0259542500000000;47.2843;2.07634
0.0259667500000000;47.2843;2.07734
0.0259792500000000;47.2843;2.07834
0.0259917500000000;47.2843;2.07934
0.0260042500000000;47.2843;2.08034
0.0260167500000000;47.2843;2.08134
0.0260292500000000;47.2843;2.08234
0.0260417500000000;47.2843;2.08334
0.0260542500000000;47.2843;2.08434
0.0260667500000000;47.2843;2.08534
0.0260792500000000;47.2843;2.08634
0.0260917500000000;47.2843;2.08734
0.0261042500000000;47.2843;2.08834
0.0261167500000000;47.2843;2.08934
0.0261292500000000;47.2843;2.09034
0.0261417500000000;47.2843;2.09134
0.0261542500000000;47.2843;2.09234
0.0261667500000000;47.2843;2.09334
0.0261792500000000;47.2843;2.09434
0.0261917500000000;47.2843;2.09534
0.0262042500000000;47.2843;2.09634
0.0262167500000000;47.2843;2.09734
0.0262292500000000;47.2843;2.09834
0.0262417500000000;47.2843;2.09934
0.0262542500000000;47.2843;2.10034
0.0262667500000000;47.2843;2.10134
0.0262792500000000;47.2843;2.10234
0.0262917500000000;47.2843;2.10334
0.0263042500000000;47.2843;2.10434
0.0263167500000000;47.2843;2.10534
0.0263292500000000;47.2843;2.10634
0.0263417500000000;47.2843;2.10734
0.0263542500000000;47.2843;2.10834
0.0263667500000000;47.2843;2.10934
0.0263792500000000;47.2843;2.11034
0.0263917500000000;47.2843;2.11134
0.0264042500000000;47.2843;2.11234
0.0264167500000000;47.2843;2.11334
0.0264292500000000;47.2843;2.11434
0.0264417500000000;47.2843;2.11534
0.0264542500000000;47.2843;2.11634
0.0264667500000000;47.2843;2.11734
0.0264792500000000;47.2843;2.11834
0.0264917500000000;47.2843;2.11934
0.0265042500000000;47.2843;2.12034
0.0265167500000000;47.2843;2.12134
0.0265292500000000;47.2843;2.12234
0.0265417500000000;47.2843;2.12334
0.0265542500000000;47.2843;2.12434
0.0265667500000000;47.2843;2.12534
0.0265792500000000;47.2843;2.12634
0.0265917500000000;47.2843;2.12734
0.0266042500000000;47.2843;2.12834
0.0266167500000000;47.2843;2.12934
0.0266292500000000;47.2843;2.13034
0.0266417500000000;47.2843;2.13134
0.0266542500000000;47.2843;2.13234
0.0266667500000000;47.2843;2.13334
0.0266792500000000;47.2843;2.13434
0.0266917500000000;47.2843;2.13534
0.0267042500000000;47.2843;2.13634
0.0267167500000000;47.2843;2.13734
0.0267292500000000;47.2843;2.13834
0.0267417500000000;47.2843;2.13934
0.0267542500000000;47.2843;2.14034
0.0267667500000000;47.2843;2.14134
0.0267792500000000;47.2843;2.14234
0.0267917500000000;47.2843;2.14334
0.0268042500000000;47.2843;2.14434
0.0268167500000000;47.2843;2.14534
0.0268292500000000;47.2843;2.14634
0.0268417500000000;47.2843;2.14734
0.0268542500000000;47.2843;2.14834
0.0268667500000000;47.2843;2.14934
0.0268792500000000;47.2843;2.15034
0.0268917500000000;47.2843;2.15134
0.0269042500000000;47.2843;2.15234
0.0269167500000000;47.2843;2.15334
0.0269292500000000;47.2843;2.15434
0.0269417500000000;47.2843;2.15534
0.0269542500000000;47.2843;2.15634
0.0269667500000000;47.2843;2.15734
0.0269792500000000;47.2843;2.15834
0.0269917500000000;47.2843;2.15934
0.0270042500000000;47.2843;2.16034
0.0270167500000000;47.2843;2.16134
0.0270292500000000;47.2843;2.16234
0.0270417500000000;47.2843;2.16334
0.0270542500000000;47.2843;2.16434
0.0270667500000000;47.2843;2.16534
0.0270792500000000;47.2843;2.16634
0.0270917500000000;47.2843;2.16734
0.0271042500000000;47.2843;2.16834
0.0271167500000000;47.2843;2.16934
0.0271292500000000;47.2843;2.17034
0.0271417500000000;47.2843;2.17134
0.0271542500000000;47.2843;2.17234
0.0271667500000000;47.2843;2.17334
0.0271792500000000;47.2843;2.17434
0.0271917500000000;47.2843;2.17534
0.0272042500000000;47.2843;2.17634
0.0272167500000000;47.2843;2.17734
0.0272292500000000;47.2843;2.17834
0.0272417500000000;47.2843;2.17934
0.0272542500000000;47.2843;2.18034
0.0272667500000000;47.2843;2.18134
0.0272792500000000;47.2843;2.18234
0.0272917500000000;47.2843;2.18334
0.0273042500000000;47.2843;2.18434
0.0273167500000000;47.2843;2.18534
0.0273292500000000;47.2843;2.18634
0.0273417500000000;47.2843;2.18734
0.0273542500000000;47.2843;2.18834
0.0273667500000000;47.2843;2.18934
0.0273792500000000;47.2843;2.19034
0.0273917500000000;47.2843;2.19134
0.0274042500000000;47.2843;2.19234
0.0274167500000000;47.2843;2.19334
0.0274292500000000;47.2843;2.19434
0.0274417500000000;47.2843;2.19534
0.0274542500000000;47.2843;2.19634
0.0274667500000000;47.2843;2.19734
0.0274792500000000;47.2843;2.19834
0.0274917500000000;47.2843;2.19934
0.0275042500000000;47.2843;2.20034
0.0275167500000000;47.2843;2.20134
0.0275292500000000;47.2843;2.20234
0.0275417500000000;47.2843;2.20334
0.0275542500000000;47.2843;2.20434
0.0275667500000000;47.2843;2.20534
0.0275792500000000;47.2843;2.20634
0.0275917500000000;47.2843;2.20734
0.0276042500000000;47.2843;2.20834
0.0276167500000000;47.2843;2.20934
0.0276292500000000;47.2843;2.21034
0.0276417500000000;47.2843;2.21134
0.0276542500000000;47.2843;2.21234
0.0276667500000000;47.2843;2.21334
0.0276792500000000;47.2843;2.21434
0.0276917500000000;47.2843;2.21534
0.0277042500000000;47.2843;2.21634
0.0277167500000000;47.2843;2.21734
0.0277292500000000;47.2843;2.21834
0.0277417500000000;47.2843;2.21934
0.0277542500000000;47.2843;2.22034
0.0277667500000000;47.2843;2.22134
0.0277792500000000;47.2843;2.22234
0.0277917500000000;47.2843;2.22334
0.0278042500000000;47.2843;2.22434
0.0278167500000000;47.2843;2.22534
0.0278292500000000;47.2843;2.22634
0.0278417500000000;47.2843;2.22734
0.0278542500000000;47.2843;2.22834
0.0278667500000000;47.2843;2.22934
0.0278792500000000;47.2843;2.23034
0.0278917500000000;47.2843;2.23134
0.0279042500000000;47.2843;2.23234
0.0279167500000000;47.2843;2.23334
0.0279292500000000;47.2843;2.23434
0.0279417500000000;47.2843;2.23534
0.0279542500000000;47.2892;2.23634
0.0279667500000000;47.3046;2.23734
0.0279792500000000;47.3201;2.23834
0.0279917500000000;47.3355;2.23934
0.0280042500000000;47.3509;2.24034
0.0280167500000000;47.3664;2.24134
0.0280292500000000;47.3818;2.24234
0.0280417500000000;47.3972;2.24334
0.0280542500000000;47.4127;2.24434
0.0280667500000000;47.4281;2.24534
0.0280792500000000;47.4435;2.24634
0.0280917500000000;47.459;2.24734
0.0281042500000000;47.4744;2.24834
0.0281167500000000;47.4898;2.24934
0.0281292500000000;47.5052;2.25034
0.0281417500000000;47.5207;2.25134
0.0281542500000000;47.5361;2.25234
0.0281667500000000;47.5515;2.25334
0.0281792500000000;47.567;2.25434
0.0281917500000000;47.5824;2.25534
0.0282042500000000;47.5978;2.25634
0.0282167500000000;47.6133;2.25734
0.0282292500000000;47.6287;2.25834
0.0282417500000000;47.6441;2.25934
0.0282542500000000;47.6596;2.26034
0.0282667500000000;47.675;2.26134
0.0282792500000000;47.6904;2.26234
0.0282917500000000;47.7059;2.26334
0.0283042500000000;47.7213;2.26434
0.0283167500000000;47.7367;2.26534
0.0283292500000000;47.7521;2.26634
0.0283417500000000;47.7676;2.26734
0.0283542500000000;47.783;2.26834
0.0283667500000000;47.7955;2.26934
0.0283792500000000;47.7955;2.27034
0.0283917500000000;47.7955;2.27134
0.0284042500000000;47.7955;2.27234
0.0284167500000000;47.7955;2.27334
0.0284292500000000;47.7955;2.27434
0.0284417500000000;47.7955;2.27534
0.0284542500000000;47.7955;2.27634
0.0284667500000000;47.7955;2.27734
0.0284792500000000;47.7955;2.27834
0.0284917500000000;47.7955;2.27934
0.0285042500000000;47.7955;2.28034
0.0285167500000000;47.7955;2.28134
0.0285292500000000;47.7955;2.28234
0.0285417500000000;47.7955;2.28334
0.0285542500000000;47.7955;2.28434
0.0285667500000000;47.7955;2.28534
0.0285792500000000;47.7955;2.28634
0.0285917500000000;47.7955;2.28734
0.0286042500000000;47.7955;2.28834
0.0286167500000000;47.7955;2.28934
0.0286292500000000;47.7955;2.29034
0.0286417500000000;47.7955;2.29134
0.0286542500000000;47.7955;2.29234
0.0286667500000000;47.7955;2.29334
0.0286792500000000;47.7955;2.29434
0.0286917500000000;47.7955;2.29534
0.0287042500000000;47.7955;2.29634
0.0287167500000000;47.7955;2.29734
0.0287292500000000;47.7955;2.29834
0.0287417500000000;47.7955;2.29934
0.0287542500000000;47.7955;2.30034
0.0287667500000000;47.7955;2.30134
0.0287792500000000;47.7955;2.30234
0.0287917500000000;47.7955;2.30334
0.0288042500000000;47.7955;2.30434
0.0288167500000000;47.7955;2.30534
0.0288292500000000;47.7955;2.30634
0.0288417500000000;47.7955;2.30734
0.0288542500000000;47.7955;2.30834
0.0288667500000000;47.7955;2.30934
0.0288792500000000;47.7955;2.31034
0.0288917500000000;47.7955;2.31134
0.0289042500000000;47.7955;2.31234
0.0289167500000000;47.7955;2.31334
0.0289292500000000;47.7955;2.31434
0.0289417500000000;47.7955;2.31534
0.0289542500000000;47.7955;2.31634
0.0289667500000000;47.7955;2.31734
0.0289792500000000;47.7955;2.31834
0.0289917500000000;47.7955;2.31934
0.0290042500000000;47.7955;2.32034
0.0290167500000000;47.7955;2.32134
0.0290292500000000;47.7955;2.32234
0.0290417500000000;47.7955;2.32334
0.0290542500000000;47.7955;2.32434
0.0290667500000000;47.7955;2.32534
0.0290792500000000;47.7955;2.32634
0.0290917500000000;47.7955;2.32734
0.0291042500000000;47.7955;2.32834
0.0291167500000000;47.7955;2.32934
0.0291292500000000;47.7955;2.33034
0.0291417500000000;47.7955;2.33134
0.0291542500000000;47.7955;2.33234
0.0291667500000000;47.7955;2.33334
0.0291792500000000;47.7955;2.33434
0.0291917500000000;47.7955;2.33534
0.0292042500000000;47.7811;2.33634
0.0292167500000000;47.7656;2.33734
0.0292292500000000;47.7502;2.33834
0.0292417500000000;47.7348;2.33934
0.0292542500000000;47.7194;2.34034
0.0292667500000000;47.7039;2.34134
0.0292792500000000;47.6885;2.34234
0.0292917500000000;47.6731;2.34334
0.0293042500000000;47.6576;2.34434
0.0293167500000000;47.6422;2.34534
0.0293292500000000;47.6268;2.34634
0.0293417500000000;47.6113;2.34734
0.0293542500000000;47.5959;2.34834
0.0293667500000000;47.5805;2.34934
0.0293792500000000;47.565;2.35034
0.0293917500000000;47.5496;2.35134
0.0294042500000000;47.5342;2.35234
0.0294167500000000;47.5187;2.35334
0.0294292500000000;47.5033;2.35434
0.0294417500000000;47.4879;2.35534
0.0294542500000000;47.4725;2.35634
0.0294667500000000;47.457;2.35734
0.0294792500000000;47.4416;2.35834
0.0294917500000000;47.4262;2.35934
0.0295042500000000;47.4107;2.36034
0.0295167500000000;47.3953;2.36134
0.0295292500000000;47.3799;2.36234
0.0295417500000000;47.3644;2.36334
0.0295542500000000;47.349;2.36434
0.0295667500000000;47.3336;2.36534
0.0295792500000000;47.3181;2.36634
0.0295917500000000;47.3027;2.36734
0.0296042500000000;47.2873;2.36834
